File: data/Cr/cr2o3_rt_001.xdi
# XDI/1.0
# Column.1: energy eV
# Column.2: i0
# Column.3: itrans
# Column.4: irefer
# Beamline.name: SSRL 2-3
# Beamline.notes: vert slits = 0.6mm
# Detector.I0: N2 15cm
# Detector.I1: N2 30cm
# Detector.I2: N2 15cm
# Element.edge: K
# Element.symbol: Cr
# Mono.d_spacing: 3.13550
# Mono.name: Si(111)
# Mono.notes: unfocused, detuned 75%, clockwise at E=5990eV
# Sample.formula: Cr2O3
# Sample.name: Cr2O3
# Sample.prep: powder on tape (5 layers)
# Sample.reference: Cr foil
# Sample.temperature: room temp
# Scan.start_time: 1997-04-17 17:30:13
# ///
#    Note: mono d_spacing is nominal!
#     exafs to K16
#     396  E XMU XMUR I0
#-------------
#   energy   i0   itrans  irefer
    5759.99  26429.9  9177.5  1164.7
    5780.01  26366.9  9561.5  1229.7
    5799.97  26280.9  9943.5  1294.7
    5820  26205.9  10342.5  1361.7
    5839.97  26102.9  10749.5  1431.7
    5860.02  25980.9  11157.5  1502.7
    5879.99  25893.9  11578.5  1580.7
    5899.97  25779.9  12003.5  1659.7
    5920.02  25663.9  12433.5  1738.7
    5939.99  25544.9  12860.5  1818.7
    5959.97  25418.9  13288.5  1900.7
    5970.49  25313.9  13492.5  1943.7
    5971.53  25268.9  13483.5  1940.7
    5972.49  25002.9  13365.5  1923.7
    5973.53  25047.9  13407.5  1931.7
    5974.5  25296.9  13562.5  1954.7
    5975.46  25352.9  13620.5  1966.7
    5976.51  25321.9  13631.5  1966.7
    5977.47  25343.9  13659.5  1972.7
    5978.52  25326.9  13669.5  1974.7
    5979.48  25340.9  13704.5  1979.7
    5980.53  25327.9  13719.5  1979.7
    5981.49  25345.9  13748.5  1986.7
    5982.46  25352.9  13773.5  1990.7
    5983.51  25376.9  13804.5  1994.7
    5984.48  25389.9  13825.5  1996.7
    5985.52  25356.9  13835.5  1996.7
    5986.49  24883.9  13589.5  1961.7
    5987.46  22715.9  12419.5  1789.7
    5988.51  23097.9  12646.5  1816.7
    5989.48  24412.9  13367.5  1906.7
    5990.53  24909.9  13616.5  1895.7
    5991.5  25017.9  13574.5  1787.7
    5992.47  25070.9  13427.5  1697.7
    5993.52  25078.9  13507.5  1655.7
    5994.49  25111.9  13390.5  1600.7
    5995.47  25090.9  13156.5  1544.7
    5996.51  25111.9  13098.5  1528.7
    5997.49  25093.9  13132.5  1533.7
    5998.54  25101.9  13089.5  1518.7
    5999.51  25075.9  12875.5  1453.7
    6000.49  25072.9  12324.5  1339.7
    6001.46  24905.9  11242.5  1173.7
    6002.51  24709.9  9890.5   998.7
    6003.49  24923.9  9108.5   896.7
    6004.47  25082.9  8810.5   848.7
    6005.52  25040.9  8210.5   774.7
    6006.5  25057.9  7460.5   691.7
    6007.47  24996.9  6762.5   617.7
    6008.53  25025.9  5868.5   527.7
    6009.5  24989.9  5391.5   472.7
    6010.94  25004.7  5482.25   468.465
    6012.82  25001.8  5119.3   443.581
    6014.78  25036  5229.38   476.812
    6016.81  25051.3  6080.51   563.16
    6018.93  25082.7  6475.67   590.624
    6021.12  25103.2  6882.88   613.203
    6023.39  25149.8  6873.13   613.897
    6025.73  25211.6  6636.42   600.708
    6028.16  25255.4  6701.76   599.635
    6030.58  25339.3  7234.13   638.678
    6033.16  25404.4  7817.55   684.837
    6035.82  25491.5  8224.01   719.112
    6038.56  25578.8  8571.51   746.501
    6041.37  25660.1  8758.05   754.008
    6044.26  25767.6  8782.64   762.63
    6047.24  25867.1  8753.27   766.368
    6050.29  26005.8  8813.93   781.221
    6053.42  26133.5  8666.64   784.191
    6056.56  26257.4  8430.4   781.277
    6059.85  26413.4  8296.19   780.478
    6063.22  26465.4  8092.02   766.795
    6066.68  26616.6  7995.9   752.229
    6070.13  26786.9  8031.82   737.778
    6073.75  26956.3  8119.78   731.442
    6077.37  27147.8  8342.78   761.222
    6081.15  27340.4  8557.82   804.119
    6084.93  27545.1  8848.9   856.13
    6088.8  27743.9  9175.03   893.259
    6092.83  27952.8  9498.2   891.503
    6096.86  28205.8  9801.42   879.865
    6100.98  28406.9  9899.66   861.339
    6105.18  28665.1  10025   884.931
    6109.46  28903.4  10238.3   943.638
    6113.83  29184.8  10504.7  1011.46
    6118.28  29449.4  10688.1  1044.4
    6122.74  29688  10835.6  1054.46
    6127.36  29962.7  11069.1  1077.63
    6131.99  30226.6  11275.6  1111.91
    6136.79  30546.5  11438.2  1140.32
    6141.59  30826.6  11544.8  1150.83
    6146.48  31112.7  11661.5  1155.47
    6151.46  31412  11871.2  1163.22
    6156.53  31732.3  12183.9  1189.09
    6161.6  32025.8  12301.7  1185.07
    6166.84  32390.3  12463.6  1179.17
    6172.1  32689  12762.5  1222.38
    6177.52  33057.8  13261.4  1304.71
    6182.95  33380.7  13558.3  1365.15
    6188.47  33743.6  13850.3  1408.72
    6194.08  34065.7  14182.4  1450.39
    6199.7  34356.9  14650.5  1510.19
    6205.5  34731.2  15209.6  1578.09
    6211.3  35091.6  15579.8  1636.12
    6217.2  35480.1  15878  1682.26
    6223.19  35873.7  16047.2  1691.52
    6229.2  36269.4  16221.5  1692.89
    6235.38  36598.2  16512.9  1699.38
    6241.56  36350.1  16661.3  1695.98
    6247.85  37282.1  17335.7  1765.7
    6254.23  37812.2  17844.1  1857.54
    6260.71  38221.5  18221.6  1948.49
    6267.2  38627.8  18573.2  2002.56
    6273.79  39060.2  19067.8  2066.74
    6280.48  39464.8  19601.4  2138.04
    6287.26  39882.4  20079.1  2196.45
    6294.06  40341.1  20515.8  2251.98
    6300.95  40763  20956.5  2320.63
    6307.95  41154.9  21326.3  2378.39
    6315.05  41659  21864.2  2441.27
    6322.16  42077.1  22452.1  2497.27
    6329.38  42537.4  23127  2565.38
    6336.69  42964.8  23776.9  2642.6
    6344.11  43419.2  24365  2721.94
    6351.55  43846.8  24855  2795.4
    6359.09  44310.5  25387.1  2878.97
    6366.65  44799.3  25946.2  2974.66
    6374.31  45283.1  26545.4  3070.47
    6382.07  45740.1  27236.6  3166.39
    6389.95  46183.2  27863.9  3255.43
    6397.84  46644.4  28440.2  3338.58
    6405.84  47102.7  29114.5  3425.85
    6413.95  47551.1  29817.9  3525.23
    6422.08  48019.6  30504.3  3632.73
    6430.32  48471.2  31267.8  3732.35
    6438.58  48926.9  31995.3  3824.08
    6446.95  49403.7  32744.8  3928.93
    6455.43  49842.7  33603.4  4063.89
    6463.93  50354.7  34530  4207.98
    6472.55  50753.8  35347.7  4334.17
    6481.28  51170  36146.4  4449.48
    6490.03  51685.4  36988.2  4583.91
    6498.9  52091.8  37739  4695.45
    6507.79  52543.4  38583.8  4820.11
    6516.8  52972  39418.7  4959.89
    6525.92  53389.8  40203.6  5092.78
    6535.07  53885.6  41181.6  5240.78
    6544.25  54284.6  42135.6  5387.91
    6553.54  54626.6  43070.7  5528.14
    6562.95  55005.8  44091.7  5684.5
    6572.4  55478.1  45188.9  5853.97
    6581.96  55895.4  46153  6014.55
    6591.55  56328.9  47122.3  6177.25
    6601.26  56686.5  48016.5  6330.08
    6611.09  57104.2  49020.8  6492.01
    6620.95  57551  50171.2  6673.06
    6630.85  57998.8  51306.6  6858.22
    6640.87  58335.8  52363  7031.5
    6650.92  58698.9  53491.4  7224.9
    6661.1  59119.1  54692.9  7432.41
    6671.31  59450.4  55805.5  7624.04
    6681.64  59785.8  56918.1  7810.78
    6692.01  59981.4  57894.7  7978.64
    6702.51  57532  56308.4  7804.62
    6713.04  61825.7  61322.1  8546.71
    6723.7  61729.5  62097.9  8691.92
    6734.4  61679.4  62934.7  8855.25
    6745.14  62234.5  64454.5  9115.69
    6756  58802.6  61830.4  8796.24
    6766.91  63117.9  67379.3  9632.91
    6777.94  63494.2  68816.3  9894.7
    6789.02  63517.6  69838.3  10091.6
    6800.23  63167.2  70487.4  10241.6
    6811.48  66084.8  74830.4  10922.8
    6822.77  65082.6  74839.6  10973
    6834.19  65169.5  76066.8  11213.4
    6845.66  65307.4  77363  11466.9
    6857.16  65605.5  78859.2  11743.5
    6868.81  65827.7  80318.5  12028.2
    6880.5  65948.9  81610.9  12295
    6892.33  66160.3  83071.3  12578.9
    6904.2  66348.8  84544.7  12867
    6916.11  66508.4  86024.2  13158.2
    6928.18  66605.1  87451.7  13454.5
    6940.28  66819.9  89047.2  13770.9
    6952.43  66942.8  90554.8  14078.4
    6964.62  67040.8  92057.4  14382
    6976.96  67195.9  93627.1  14713.8
    6989.35  67339.1  95214.8  15035.7
    7001.88  67524.4  96860.6  15378.7
    7014.47  67606.8  98391.4  15692.8
    7027.1  67583.3  99771.2  15995
    7039.77  67750  101456  16346.3
    7052.6  67863.7  103093  16697.8
    7065.48  67915.5  104654  17039.4
    7078.41  67927.5  106213  17386
    7091.39  67976.5  107818  17750.8
    7104.53  67980.6  109364  18104.8
    7111.06  67964.5  110078  18250.5