File: data/Cr/cr2o3_rt_003.xdi
# XDI/1.0
# Column.1: energy eV
# Column.2: i0
# Column.3: itrans
# Column.4: irefer
# Beamline.name: SSRL 2-3
# Beamline.notes: vert slits = 0.6mm
# Detector.I0: N2 15cm
# Detector.I1: N2 30cm
# Detector.I2: N2 15cm
# Element.edge: K
# Element.symbol: Cr
# Mono.d_spacing: 3.13550
# Mono.name: Si(111)
# Mono.notes: unfocused, detuned 75%, clockwise at E=5990eV
# Sample.formula: Cr2O3
# Sample.name: Cr2O3
# Sample.prep: powder on tape (5 layers)
# Sample.reference: Cr foil
# Sample.temperature: room temp
# Scan.start_time: 1997-04-17 17:30:13
# ///
#    Note: mono d_spacing is nominal!
#     exafs to K16
#     396  E XMU XMUR I0
#-------------
#   energy   i0   itrans  irefer
    5759.99  26807.9  9316.5  1189.7
    5780.01  26738.9  9705.5  1254.7
    5799.97  26624.9  10088.5  1319.7
    5820  26533.9  10491.5  1390.7
    5839.97  26437.9  10894.5  1460.7
    5860.02  26343.9  11320.5  1533.7
    5879.99  26244.9  11741.5  1608.7
    5899.97  26132.9  12173.5  1688.7
    5920.02  26014.9  12610.5  1769.7
    5939.99  25894.9  13049.5  1852.7
    5959.97  25765.9  13476.5  1933.7
    5970.49  25700.9  13704.5  1974.7
    5971.53  25642.9  13697.5  1973.7
    5972.49  25382.9  13581.5  1956.7
    5973.53  25438.9  13629.5  1965.7
    5974.5  25697.9  13793.5  1989.7
    5975.46  25763.9  13855.5  2001.7
    5976.51  25727.9  13855.5  1998.7
    5977.47  25738.9  13883.5  2007.7
    5978.52  25718.9  13888.5  2008.7
    5979.48  25731.9  13917.5  2012.7
    5980.53  25714.9  13934.5  2013.7
    5981.49  25717.9  13958.5  2018.7
    5982.46  25717.9  13980.5  2025.7
    5983.51  25745.9  14014.5  2028.7
    5984.48  25745.9  14038.5  2031.7
    5985.52  25719.9  14041.5  2032.7
    5986.49  25230.9  13791.5  1992.7
    5987.46  23115.9  12643.5  1824.7
    5988.51  23346.9  12789.5  1840.7
    5989.48  24715.9  13540.5  1936.7
    5990.53  25211.9  13799.5  1922.7
    5991.5  25325.9  13751.5  1818.7
    5992.47  25379.9  13606.5  1726.7
    5993.52  25388.9  13673.5  1678.7
    5994.49  25419.9  13553.5  1623.7
    5995.47  25412.9  13321.5  1569.7
    5996.51  25426.9  13269.5  1550.7
    5997.49  25416.9  13303.5  1554.7
    5998.54  25415.9  13261.5  1539.7
    5999.51  25410.9  13058.5  1478.7
    6000.49  25401.9  12512.5  1361.7
    6001.46  25222.9  11410.5  1195.7
    6002.51  25024.9  10043.5  1014.7
    6003.49  25263.9  9248.5   911.7
    6004.47  25405.9  8940.5   862.7
    6005.52  25370.9  8346.5   788.699
    6006.5  25383.9  7588.5   704.7
    6007.47  25365.9  6899.5   630.7
    6008.53  25380.9  5987.5   537.7
    6009.5  25384.9  5487.5   484.7
    6010.94  25366.7  5558.25   477.465
    6012.82  25369.8  5209.3   449.581
    6014.78  25380  5282.38   480.812
    6016.81  25413.3  6162.5   571.16
    6018.93  25426.7  6560.67   600.624
    6021.12  25460.2  6975.88   624.203
    6023.39  25492.8  6967.13   622.897
    6025.73  25552.6  6732.43   608.708
    6028.16  25615.4  6799.75   609.635
    6030.58  25695.3  7333.14   647.678
    6033.16  25778.4  7931.55   693.837
    6035.82  25844.5  8338.01   728.111
    6038.56  25948.8  8696.51   756.501
    6041.37  26029.1  8878.05   770.008
    6044.26  26112.6  8900.64   774.63
    6047.24  26245.1  8874.27   778.368
    6050.29  26375.8  8936.94   790.221
    6053.42  26508.5  8791.64   793.191
    6056.56  26640.4  8552.39   790.277
    6059.85  26775.4  8409.18   789.478
    6063.22  26840.4  8209.02   777.795
    6066.68  26991.6  8108.89   763.229
    6070.13  27155.9  8144.81   750.777
    6073.75  27367.3  8243.78   742.442
    6077.37  27518.8  8457.78   771.222
    6081.15  27739.4  8681.82   817.119
    6084.93  27935.1  8979.91   869.131
    6088.8  28146.9  9309.03   905.26
    6092.83  28346.8  9640.2   906.503
    6096.86  28579.8  9945.41   895.864
    6100.98  28844.9  10062.7   880.339
    6105.18  29035.1  10162   896.931
    6109.46  29277.4  10372.3   958.639
    6113.83  29539.8  10632.7  1022.46
    6118.28  29809.4  10820.1  1058.4
    6122.74  30082  10981.6  1071.46
    6127.36  30330.7  11202.1  1091.63
    6131.99  30610.6  11421.6  1128.91
    6136.79  30908.5  11573.2  1152.32
    6141.59  31226.6  11695.8  1165.83
    6146.48  31501.7  11806.5  1170.47
    6151.46  31841  12037.2  1178.22
    6156.53  32150.3  12343.9  1204.08
    6161.6  32454.8  12461.7  1200.07
    6166.84  32794.3  12614.6  1194.17
    6172.1  33120  12930.5  1240.38
    6177.52  33474.8  13424.4  1324.71
    6182.95  33816.7  13734.3  1385.15
    6188.47  34177.6  14033.3  1427.71
    6194.08  34523.7  14375.4  1473.39
    6199.7  34881.9  14877.5  1533.19
    6205.5  35266.2  15449.6  1603.09
    6211.3  35663.6  15841.8  1663.12
    6217.2  36034.1  16134  1709.26
    6223.19  36435.7  16311.2  1722.52
    6229.2  36825.4  16481.5  1725.89
    6235.38  37178.2  16781.9  1731.38
    6241.56  36878.1  16909.3  1728.98
    6247.85  37894.1  17618.7  1803.7
    6254.23  38414.2  18132.1  1890.54
    6260.71  38857.5  18533.6  1988.49
    6267.2  39248.8  18872.2  2041.55
    6273.79  39671.2  19371.8  2102.74
    6280.48  40125.8  19942.4  2179.04
    6287.26  40541.4  20427.1  2239.45
    6294.06  40997.1  20862.8  2292.98
    6300.95  41408  21298.5  2360.63
    6307.95  41828.9  21695.3  2416.39
    6315.05  42317  22220.2  2479.27
    6322.16  42705.1  22792.1  2534.26
    6329.38  43169.4  23476  2600.38
    6336.69  43633.8  24156.9  2678.6
    6344.11  44082.2  24745  2759.94
    6351.55  44564.8  25271  2843.4
    6359.09  45044.5  25801.1  2925.98
    6366.65  45512.3  26369.2  3026.66
    6374.31  45944.1  26957.4  3122.47
    6382.07  46393.1  27648.6  3214.39
    6389.95  46846.2  28278.9  3301.43
    6397.84  47304.4  28863.2  3391.58
    6405.84  47782.7  29540.5  3482.85
    6413.95  48237.1  30252.9  3579.23
    6422.08  48707.6  30958.3  3688.73
    6430.32  49163.2  31715.8  3796.35
    6438.58  49613.9  32466.3  3884.08
    6446.95  50123.7  33239.8  3992.93
    6455.43  50575.7  34107.4  4128.89
    6463.93  51034.7  35007  4268.97
    6472.55  51476.8  35866.7  4398.17
    6481.28  51913  36672.4  4525.48
    6490.03  52390.4  37507.2  4650.91
    6498.9  52883.8  38339  4768.45
    6507.79  53308.4  39173.8  4895.11
    6516.8  53764  40027.7  5037.89
    6525.92  54299.8  40919.6  5182.78
    6535.07  54667.6  41801.6  5320.78
    6544.25  55118.6  42795.6  5470.91
    6553.54  55506.6  43790.7  5623.14
    6562.95  55925.8  44851.7  5782.5
    6572.4  56424.1  45981.9  5959.97
    6581.96  56842.4  46964.1  6124.56
    6591.55  57283.9  47947.3  6293.26
    6601.26  57698.5  48907.5  6454.07
    6611.09  58057.2  49867.8  6608.01
    6620.95  58427  50962.2  6788.06
    6630.85  58864.8  52081.5  6969.22
    6640.87  59246.8  53214  7154.5
    6650.92  59661.9  54384.4  7353.9
    6661.1  59987.1  55532.9  7549.41
    6671.31  60339.4  56655.5  7740.04
    6681.64  60737.8  57831.1  7937.79
    6692.01  60833.4  58711.7  8103.65
    6702.51  58474  57238.4  7936.62
    6713.04  62694.7  62200.1  8670.71
    6723.7  62624.5  62994.9  8822.92
    6734.4  62633.4  63930.7  9002.25
    6745.14  63165.5  65424.5  9258.69
    6756  59784.6  62852.4  8943.24
    6766.91  63976.9  68273.3  9762.92
    6777.94  64458.2  69829.3  10049.7
    6789.02  64318.6  70690.3  10230.6
    6800.23  63995.2  71367.4  10379.6
    6811.48  66977.8  75802.4  11081.8
    6822.77  65948.6  75810.6  11132
    6834.19  66095.5  77113.8  11381.4
    6845.66  66310.4  78541  11659.9
    6857.16  66479.5  79911.2  11918.5
    6868.81  66725.7  81391.5  12201.2
    6880.5  66881.9  82767.9  12473
    6892.33  67012.3  84147.3  12744.9
    6904.2  67037.8  85412.7  13008
    6916.11  67185.4  86902.2  13308.2
    6928.18  67253.1  88324.7  13594.5
    6940.28  67465.9  89883.2  13913.9
    6952.43  67556.8  91386.8  14227.4
    6964.62  67684.8  92932.4  14535
    6976.96  67811.9  94500.1  14861.8
    6989.35  67958.1  96079.8  15188.7
    7001.88  68041.4  97604.6  15506.7
    7014.47  68233.8  99288.4  15842.8
    7027.1  68256.3  100749  16157
    7039.77  68279  102246  16482.3
    7052.6  68525.7  104089  16856.8
    7065.48  68550.5  105644  17204.3
    7078.41  68683.5  107412  17582
    7091.39  68741.5  109025  17946.8
    7104.53  68658.6  110439  18268.8
    7111.06  68463.5  110897  18382.5