File: data/Cr/cr2o3_rt_002.xdi
# XDI/1.0
# Column.1: energy eV
# Column.2: i0
# Column.3: itrans
# Column.4: irefer
# Beamline.name: SSRL 2-3
# Beamline.notes: vert slits = 0.6mm
# Detector.I0: N2 15cm
# Detector.I1: N2 30cm
# Detector.I2: N2 15cm
# Element.edge: K
# Element.symbol: Cr
# Mono.d_spacing: 3.13550
# Mono.name: Si(111)
# Mono.notes: unfocused, detuned 75%, clockwise at E=5990eV
# Sample.formula: Cr2O3
# Sample.name: Cr2O3
# Sample.prep: powder on tape (5 layers)
# Sample.reference: Cr foil
# Sample.temperature: room temp
# Scan.start_time: 1997-04-17 17:30:13
# ///
#    Note: mono d_spacing is nominal!
#     exafs to K16
#     396  E XMU XMUR I0
#-------------
#   energy   i0   itrans  irefer
    5759.99  27115.9  9422.5  1200.7
    5780.01  27042.9  9812.5  1265.7
    5799.97  26958.9  10212.5  1335.7
    5820  26866.9  10619.5  1404.7
    5839.97  26744.9  11022.5  1475.7
    5860.02  26659.9  11457.5  1549.7
    5879.99  26539.9  11875.5  1628.7
    5899.97  26444.9  12315.5  1706.7
    5920.02  26305.9  12750.5  1789.7
    5939.99  26203.9  13197.5  1873.7
    5959.97  26053.9  13613.5  1952.7
    5970.49  25970.9  13832.5  1994.7
    5971.53  25924.9  13830.5  1992.7
    5972.49  25711.9  13742.5  1981.7
    5973.53  25593.9  13704.5  1976.7
    5974.5  25919.9  13901.5  2005.7
    5975.46  25981.9  13955.5  2013.7
    5976.51  25983.9  13978.5  2021.7
    5977.47  25985.9  13999.5  2023.7
    5978.52  25970.9  14016.5  2027.7
    5979.48  25994.9  14054.5  2035.7
    5980.53  25975.9  14070.5  2036.7
    5981.49  25961.9  14080.5  2039.7
    5982.46  25989.9  14120.5  2043.7
    5983.51  25994.9  14144.5  2047.7
    5984.48  25988.9  14164.5  2049.7
    5985.52  25981.9  14176.5  2052.7
    5986.49  25588.9  13979.5  2023.7
    5987.46  23801.9  13016.5  1879.7
    5988.51  23251.9  12731.5  1833.7
    5989.48  24883.9  13631.5  1951.7
    5990.53  25449.9  13924.5  1948.7
    5991.5  25574.9  13904.5  1844.7
    5992.47  25645.9  13755.5  1749.7
    5993.52  25683.9  13832.5  1701.7
    5994.49  25669.9  13710.5  1644.7
    5995.47  25689.9  13484.5  1590.7
    5996.51  25673.9  13397.5  1564.7
    5997.49  25680.9  13443.5  1568.7
    5998.54  25695.9  13419.5  1558.7
    5999.51  25671.9  13223.5  1499.7
    6000.49  25653.9  12691.5  1386.7
    6001.46  25497.9  11623.5  1219.7
    6002.51  25248.9  10227.5  1035.7
    6003.49  25472.9  9378.5   925.7
    6004.47  25647.9  9055.5   874.7
    6005.52  25611.9  8485.5   802.7
    6006.5  25609.9  7719.5   717.7
    6007.47  25601.9  7018.5   640.7
    6008.53  25582.9  6107.5   547.7
    6009.5  25604.9  5555.5   489.7
    6010.94  25691.7  5631.26   483.465
    6012.82  25731.8  5309.3   457.581
    6014.78  25736  5334.38   484.812
    6016.81  25755.3  6232.5   577.16
    6018.93  25771.7  6638.67   607.624
    6021.12  25814.2  7067.88   633.203
    6023.39  25868.8  7093.13   635.897
    6025.73  25931.6  6840.43   620.708
    6028.16  25987.4  6888.76   617.635
    6030.58  26038.3  7414.13   652.677
    6033.16  26112.4  8019.55   700.837
    6035.82  26203.5  8449.01   738.111
    6038.56  26286.8  8810.51   764.501
    6041.37  26374.1  9010.06   776.008
    6044.26  26491.6  9045.64   781.63
    6047.24  26581.1  8997.27   787.368
    6050.29  26711.8  9061.93   800.221
    6053.42  26868.5  8925.65   804.191
    6056.56  27002.4  8683.4   801.277
    6059.85  27129.4  8536.19   800.478
    6063.22  27221.4  8336.02   787.795
    6066.68  27361.6  8228.9   774.229
    6070.13  27533.9  8263.81   760.777
    6073.75  27730.3  8361.78   754.442
    6077.37  27921.8  8587.78   784.222
    6081.15  28111.4  8803.82   830.119
    6084.93  28320.1  9106.9   882.13
    6088.8  28466.9  9418.04   919.26
    6092.83  28668.8  9753.2   918.503
    6096.86  28884.8  10048.4   905.864
    6100.98  29138.9  10168.7   890.339
    6105.18  29344.1  10270   908.931
    6109.46  29597.4  10494.3   968.638
    6113.83  29853.8  10749.7  1034.46
    6118.28  30134.4  10942.1  1069.4
    6122.74  30408  11108.5  1082.46
    6127.36  30668.7  11338.1  1104.63
    6131.99  30958.6  11560.6  1140.91
    6136.79  31238.5  11710.2  1166.32
    6141.59  31552.6  11821.8  1175.83
    6146.48  31838.7  11941.5  1184.47
    6151.46  32162  12167.2  1191.22
    6156.53  32491.3  12482.9  1214.08
    6161.6  32816.8  12608.7  1210.07
    6166.84  33124.3  12758.6  1204.17
    6172.1  33487  13080.5  1250.38
    6177.52  33838.8  13571.4  1335.71
    6182.95  34195.7  13896.3  1399.15
    6188.47  34572.6  14192.3  1445.71
    6194.08  34953.7  14557.4  1490.39
    6199.7  35304.9  15050.5  1553.19
    6205.5  35714.2  15643.6  1626.09
    6211.3  36068.6  16027.8  1685.12
    6217.2  36484.1  16331  1733.26
    6223.19  36879.7  16509.2  1743.52
    6229.2  37282.4  16684.5  1746.89
    6235.38  37614.2  16976.9  1751.38
    6241.56  37402.1  17147.3  1752.98
    6247.85  38276.1  17801.7  1820.7
    6254.23  38831.2  18332.1  1910.54
    6260.71  39297.5  18742.6  2002.49
    6267.2  39722.8  19102.2  2059.56
    6273.79  40141.2  19596.8  2123.74
    6280.48  40578.8  20150.4  2195.04
    6287.26  41042.4  20670.1  2260.45
    6294.06  41475.1  21111.8  2315.98
    6300.95  41914  21558.5  2386.63
    6307.95  42314.9  21947.3  2445.39
    6315.05  42846  22505.2  2511.27
    6322.16  43290.1  23115.1  2571.27
    6329.38  43739.4  23780  2634.38
    6336.69  44179.8  24451.9  2714.6
    6344.11  44633.2  25056  2791.94
    6351.55  45084.8  25565  2878.4
    6359.09  45536.5  26094.1  2961.97
    6366.65  46017.3  26667.2  3065.66
    6374.31  46519.1  27270.4  3164.47
    6382.07  46955.1  27963.6  3255.39
    6389.95  47379.2  28600.9  3339.43
    6397.84  47903.4  29226.2  3430.58
    6405.84  48374.7  29906.5  3521.85
    6413.95  48813.1  30621.9  3613.23
    6422.08  49292.6  31325.3  3720.73
    6430.32  49789.2  32118.8  3831.35
    6438.58  50224.9  32856.3  3925.08
    6446.95  50718.7  33617.8  4032.93
    6455.43  51177.7  34512.4  4172.89
    6463.93  51630.7  35439  4318.98
    6472.55  52085.8  36308.7  4448.17
    6481.28  52581  37155.4  4575.48
    6490.03  53046.4  37986.2  4706.91
    6498.9  53478.8  38765  4823.45
    6507.79  53925.4  39647.8  4953.11
    6516.8  54346  40468.7  5091.88
    6525.92  54830.8  41331.6  5234.78
    6535.07  55328.6  42308.6  5381.78
    6544.25  55653.6  43214.6  5530.91
    6553.54  56006.6  44194.7  5668.14
    6562.95  56432.8  45246.7  5829.5
    6572.4  56891.1  46358.9  6004.97
    6581.96  57307.4  47353.1  6168.55
    6591.55  57789.9  48380.3  6344.26
    6601.26  58217.5  49349.5  6501.07
    6611.09  58615.2  50360.8  6667
    6620.95  59141  51577.2  6861.05
    6630.85  59550.8  52696.5  7042.22
    6640.87  59891.8  53765  7230.5
    6650.92  60338.9  54996.4  7440.9
    6661.1  60690.1  56169.9  7651.41
    6671.31  60988.4  57258.5  7829.04
    6681.64  61407.8  58461.1  8027.78
    6692.01  61595.4  59465.7  8211.64
    6702.51  59263  57996.4  8042.62
    6713.04  63444.7  62941.1  8772.71
    6723.7  63291.5  63688.9  8916.92
    6734.4  63339.4  64687.7  9119.24
    6745.14  63835.5  66137.5  9371.69
    6756  60171.6  63270.4  9018.24
    6766.91  64775.9  69138.3  9904.92
    6777.94  65184.2  70617.3  10166.7
    6789.02  65126.6  71580.3  10366.6
    6800.23  64702.2  72167.4  10502.6
    6811.48  67553.8  76507.4  11197.8
    6822.77  66616.6  76603.6  11271
    6834.19  66770.5  77932.8  11524.4
    6845.66  66960.4  79333  11790.9
    6857.16  67134.5  80741.2  12053.5
    6868.81  67239.7  82088.5  12314.2
    6880.5  67513.9  83607.9  12603
    6892.33  67679.3  85057.3  12886.9
    6904.2  67931.8  86659.7  13194
    6916.11  68110.4  88157.2  13497.2
    6928.18  68129.1  89517.7  13769.5
    6940.28  68364.9  91123.2  14105.9
    6952.43  68457.8  92646.8  14416.4
    6964.62  68677.8  94337.4  14755
    6976.96  68829.9  95957.1  15089.8
    6989.35  68926.1  97516.8  15407.7
    7001.88  69075.4  99127.6  15734.7
    7014.47  69253.8  100818  16096.8
    7027.1  69331.3  102363  16423
    7039.77  69521  104098  16790.3
    7052.6  69553.7  105687  17142.8
    7065.48  69633.5  107341  17494.4
    7078.41  69666.5  108948  17853
    7091.39  69718.5  110611  18224.8
    7104.53  69785.6  112285  18600.8
    7111.06  69795.5  113101  18780.5