File: data/Cr/cr2o3_ssrl4_1_rt_003.xdi
# XDI/1.0
# Column.1: energy eV
# Column.2: i0
# Column.3: itrans
# Column.4: irefer
# Beamline.name: SSRL 4-1
# Detector.I0: N2 15cm
# Detector.I1: N2 30cm
# Detector.I2: N2 15cm
# Element.edge: K
# Element.symbol: Cr
# Mono.d_spacing: 3.13550
# Mono.name: Si(111)
# Mono.notes: unfocused, detuned 30%,counter clockwise at E=6200eV
# Sample.formula: Cr2O3
# Sample.name: Cr2O3 chromium sesquioxide
# Sample.prep: powder, mixed 1:100 with B(OH)3 by wt
# Sample.reference: none
# Sample.temperature: room temperature
# Scan.start_time: 1997-01-20 20:45:03
# ///
#    Note: mono d_spacing is nominal!
#     exafs to K15: not great data!!  fluorescence signal included
#     381  E XMU XMUF I0
#-------------
#   energy   i0   itrans  irefer
    5789  520291  40346.7  39483.9
    5810.25  523877  42428.7  41501.9
    5831.5  528111  44692.7  43697.1
    5852.75  531151  46948.7  45879.9
    5874  534814  49403.7  48249.6
    5895.25  538135  51918.7  50678.4
    5916.5  541541  54610.7  53273.6
    5937.75  544470  57377.7  55932.8
    5959  547504  60233.7  58678.4
    5960.52  548041  60485.7  58921
    5962.03  547844  60639.7  59069.4
    5963.54  548083  60848.7  59267.9
    5965.06  548302  61041.7  59451.8
    5966.58  549122  61321.7  59718.5
    5968.09  549028  61478.7  59868.4
    5969.6  549225  61694.7  60075.6
    5971.12  549518  61847.7  60220.3
    5972.64  547969  61559.7  59933.7
    5974.15  544102  61869.7  60228.8
    5975.67  544668  62268.7  60610.3
    5977.18  544820  62022.7  60365.6
    5978.7  548863  62729.7  61048.8
    5980.21  550548  63092.7  61393.8
    5981.73  550557  63263.7  61554
    5983.24  550177  63300.7  61578.6
    5984.76  535512  60393.7  58732.4
    5986.27  502861  59949.7  58260.5
    5987.79  541313  63085.7  61305
    5989.3  547733  63413.7  61536.5
    5990.82  549446  63325.7  61301.8
    5992.33  550315  63218.7  61118.6
    5993.85  549243  62225.7  59946.3
    5995.36  543384  62146.7  59829.1
    5996.88  541415  61686.7  59272.4
    5998.39  547456  60448.7  57607.1
    5999.91  550872  57055.7  53352.1
    6001.42  551541  54054.7  49602.2
    6002.94  551949  52412.7  47604.3
    6004.45  552047  49822.7  44545.9
    6005.97  551744  46834.7  41104.1
    6007.49  552196  45276.7  39158.4
    6009  552941  45504.7  39340
    6009.04  552711  45478.7  39315.9
    6009.15  552955  45460.6  39297.1
    6009.35  553078  45413.4  39246.9
    6009.62  553403  45317.2  39136.7
    6009.97  554236  45211.9  39001.1
    6010.39  554229  44944.5  38687.3
    6010.89  555582  44852.1  38523.8
    6011.47  556505  44912.6  38525
    6012.13  557409  45341  38923.8
    6012.86  558058  46166.4  39782.6
    6013.67  559767  47244.7  40946.7
    6014.56  560384  48124  41936
    6015.53  562192  48851.1  42714.7
    6016.57  563740  49518.3  43409.9
    6017.69  565204  50264.3  44202
    6018.88  566824  50950.3  44930.5
    6020.16  568442  51273.2  45247.2
    6021.51  570656  51226  45115.8
    6022.94  572683  51095.8  44867.9
    6024.44  575137  51319.5  45004.3
    6026.03  576805  51903.2  45557
    6027.69  579148  53106.8  46822.4
    6029.43  581735  54494.3  48305.6
    6031.24  584417  55775.8  49676.1
    6033.14  587268  56858.1  50809.6
    6035.1  589716  57839.4  51828.1
    6037.15  593081  58788.7  52784.8
    6039.27  596164  59449.9  53407.6
    6041.47  599031  59857.1  53735.4
    6043.75  601975  60124.1  53884.5
    6046.11  605750  60712.1  54374.1
    6048.54  609394  61182  54741.3
    6051.05  612496  61178.9  54577.8
    6053.64  616674  61168.7  54352.8
    6056.3  619490  61213.4  54231.3
    6059.04  622452  61215.1  54051.1
    6061.86  625307  61277.7  53928.3
    6064.76  629469  61656.2  54144.1
    6067.73  633898  62267.6  54621
    6070.78  638069  62986  55211.3
    6073.91  642798  64018.4  56148.8
    6077.11  647387  65131.7  57178.6
    6080.4  651656  66211.9  58177.3
    6083.76  656749  67638  59546.4
    6087.19  661534  69012.1  60859.5
    6090.7  666105  70389.1  62177.5
    6094.3  671401  71760  63470.5
    6097.97  677230  72802.9  64351.1
    6101.71  681917  73650.7  65029.9
    6105.53  687772  74895.4  66118.6
    6109.43  693603  76282.1  67376.6
    6113.41  698702  77552.7  68510.4
    6117.46  704834  78735.2  69512.5
    6121.6  710530  79955.8  70552.3
    6125.81  716914  81384.1  71806.3
    6130.09  722590  82712.5  72959.5
    6134.45  728652  83899.8  73926
    6138.89  735696  85140  74901.6
    6143.41  741757  86284.2  75801.7
    6148.01  748637  87759.2  77037
    6152.68  755246  89490.2  78571.6
    6157.43  762015  91051.2  79890.4
    6162.26  768764  92299.1  80832
    6167.16  775205  93800.9  82069.1
    6172.14  782828  96007.7  84084.4
    6177.2  789752  98232.3  86143
    6182.33  797262  100084  87722.5
    6187.55  804982  102057  89417.7
    6192.84  813073  104222  91318.3
    6198.2  820798  106787  93675.9
    6203.65  828414  109522  96222.8
    6209.17  835748  111806  98237.2
    6214.77  844773  114072  100146
    6220.45  852370  115864  101548
    6226.2  860557  117634  102882
    6232.03  869119  119793  104636
    6237.94  868147  121560  106179
    6243.92  866974  122509  106985
    6249.98  893730  127775  111583
    6256.12  903199  130626  114036
    6262.34  912972  133316  116258
    6268.63  922021  136207  118721
    6275.01  931068  139382  121510
    6281.45  941156  142825  124528
    6287.98  949785  145822  127079
    6294.58  960241  149046  129773
    6301.26  969058  152061  132286
    6308.02  978113  155091  134771
    6314.85  988685  158875  138033
    6321.77  997796  162630  141307
    6328.76  1.00887e+06  166931  145098
    6335.82  1.01834e+06  170919  148572
    6342.97  1.02865e+06  174856  151925
    6350.19  1.03934e+06  178730  155120
    6357.48  1.04956e+06  182638  158356
    6364.86  1.06031e+06  186817  161838
    6372.31  1.07141e+06  191283  165594
    6379.84  1.08163e+06  195920  169564
    6387.45  1.09308e+06  200669  173559
    6395.13  1.10376e+06  205142  177215
    6402.89  1.11568e+06  210191  181452
    6410.73  1.12622e+06  215168  185656
    6418.65  1.13704e+06  220182  189851
    6426.64  1.14938e+06  225792  194591
    6434.71  1.15949e+06  230941  198911
    6442.86  1.1719e+06  236607  203638
    6451.08  1.18323e+06  242465  208614
    6459.38  1.19527e+06  248832  214102
    6467.76  1.2078e+06  255252  219559
    6476.22  1.21893e+06  261270  224571
    6484.75  1.23121e+06  267574  229801
    6493.36  1.24298e+06  273859  234975
    6502.05  1.25523e+06  280381  240329
    6510.82  1.26716e+06  287180  245960
    6519.66  1.28067e+06  294233  251704
    6528.58  1.29256e+06  301218  257460
    6537.58  1.30562e+06  308913  263880
    6546.65  1.31708e+06  316608  270320
    6555.8  1.33043e+06  324843  277244
    6565.03  1.34362e+06  333398  284438
    6574.33  1.35572e+06  341809  291455
    6583.72  1.36909e+06  350390  298474
    6593.18  1.38173e+06  358825  305272
    6602.72  1.39452e+06  367488  312302
    6612.33  1.40723e+06  376610  319806
    6622.02  1.42104e+06  386420  327952
    6631.79  1.4339e+06  396077  335907
    6641.64  1.44708e+06  406215  344264
    6651.56  1.45984e+06  416425  352664
    6661.56  1.47314e+06  427144  361503
    6671.64  1.48594e+06  437625  370073
    6681.8  1.49827e+06  448282  378741
    6692.03  1.51042e+06  458905  387290
    6702.34  1.52148e+06  469289  395664
    6712.73  1.4955e+06  464428  391149
    6723.19  1.54406e+06  489106  411349
    6733.73  1.57013e+06  508325  427345
    6744.35  1.58004e+06  520323  437050
    6755.04  1.60076e+06  536813  450551
    6765.82  1.57703e+06  537389  450767
    6776.67  1.62128e+06  561897  470894
    6787.6  1.56519e+06  561046  469904
    6798.6  1.66575e+06  597913  500103
    6809.68  1.67294e+06  609997  509794
    6820.84  1.68419e+06  624705  521645
    6832.08  1.69495e+06  639327  533395
    6843.39  1.70867e+06  655581  546449
    6854.78  1.72222e+06  672155  559759
    6866.25  1.73508e+06  688837  573038