File: data/Cr/cr2o3_ssrl4_1_rt_002.xdi
# XDI/1.0
# Column.1: energy eV
# Column.2: i0
# Column.3: itrans
# Column.4: irefer
# Beamline.name: SSRL 4-1
# Detector.I0: N2 15cm
# Detector.I1: N2 30cm
# Detector.I2: N2 15cm
# Element.edge: K
# Element.symbol: Cr
# Mono.d_spacing: 3.13550
# Mono.name: Si(111)
# Mono.notes: unfocused, detuned 30%,counter clockwise at E=6200eV
# Sample.formula: Cr2O3
# Sample.name: Cr2O3 chromium sesquioxide
# Sample.prep: powder, mixed 1:100 with B(OH)3 by wt
# Sample.reference: none
# Sample.temperature: room temperature
# Scan.start_time: 1997-01-20 20:45:03
# ///
#    Note: mono d_spacing is nominal!
#     exafs to K15: not great data!!  fluorescence signal included
#     381  E XMU XMUF I0
#-------------
#   energy   i0   itrans  irefer
    5789  521696  40205.7  39346.7
    5810.25  525815  42352.7  41428
    5831.5  529231  44532.7  43541.8
    5852.75  533234  46882.7  45817.1
    5874  536524  49292.7  48142.5
    5895.25  539890  51824.7  50589.5
    5916.5  542919  54456.7  53126.7
    5937.75  545967  57245.7  55806
    5959  549142  60112.7  58564.3
    5960.52  549235  60311.7  58753.3
    5962.03  549865  60562.7  58994
    5963.54  550257  60776.7  59200
    5965.06  550289  60978.7  59392.2
    5966.58  550295  61158.7  59562.1
    5968.09  550547  61366.7  59760.6
    5969.6  550979  61576.7  59960.2
    5971.12  550824  61698.7  60075.8
    5972.64  549540  61447.7  59825.7
    5974.15  545980  61766.7  60128.5
    5975.67  546087  62138.7  60485.9
    5977.18  545901  61860.7  60206.6
    5978.7  550482  62604.7  60927.9
    5980.21  551883  62926.7  61234.5
    5981.73  552497  63165.7  61459.5
    5983.24  552276  63235.7  61516.7
    5984.76  538599  60556.7  58890.8
    5986.27  503401  59664.7  57984.2
    5987.79  542461  62942.7  61167
    5989.3  549344  63323.7  61455.7
    5990.82  551184  63232.7  61211.8
    5992.33  552191  63165.7  61072.8
    5993.85  550987  62144.7  59870.6
    5995.36  545186  62039.7  59727.6
    5996.88  543358  61663.7  59258.8
    5998.39  548778  60393.7  57575.3
    5999.91  552654  57096.7  53427.2
    6001.42  553002  53991.7  49563.8
    6002.94  553463  52373.7  47587.7
    6004.45  553838  49822.7  44568.4
    6005.97  553865  46889.7  41175.4
    6007.49  554188  45222.7  39114.8
    6009  554379  45385.7  39235.7
    6009.04  554366  45380.7  39232.9
    6009.15  554711  45386.6  39233.7
    6009.35  554684  45344.4  39189.6
    6009.62  555421  45281.2  39111.4
    6009.97  555626  45113.9  38921.7
    6010.39  556352  44911.5  38668.6
    6010.89  557352  44766.1  38458.6
    6011.47  557755  44756.6  38392.9
    6012.13  559446  45235.1  38826
    6012.86  560027  46031.4  39654.1
    6013.67  561132  47050.7  40764.3
    6014.56  562420  48000  41818
    6015.53  563852  48688.1  42565.4
    6016.57  565394  49358.3  43262.5
    6017.69  566989  50121.3  44070.3
    6018.88  568478  50784.3  44778.8
    6020.16  570265  51143.2  45132.8
    6021.51  572209  51085  44996.2
    6022.94  574596  50981.8  44770.7
    6024.44  576753  51163.5  44868.1
    6026.03  579148  51795.2  45459.8
    6027.69  581729  53020.7  46737
    6029.43  583943  54358.3  48179.9
    6031.24  586607  55650.8  49556.8
    6033.14  588976  56683.1  50649.2
    6035.1  592232  57767.4  51756.9
    6037.15  595065  58648.7  52657.2
    6039.27  597630  59255.9  53231
    6041.47  601266  59747  53638
    6043.75  604598  60056.1  53826.9
    6046.11  608183  60614.1  54286
    6048.54  611211  61013  54593.7
    6051.05  614508  61050.9  54465.4
    6053.64  618062  60963.7  54174.2
    6056.3  622235  61179.4  54203
    6059.04  624654  61111  53962.2
    6061.86  627884  61198.7  53859.3
    6064.76  632211  61578.2  54074.4
    6067.73  636012  62128.6  54497.8
    6070.78  640155  62828.1  55069.9
    6073.91  644802  63844.4  55994.5
    6077.11  649705  64976.6  57042.6
    6080.4  654152  66092.8  58071.2
    6083.76  659068  67486  59406.4
    6087.19  664072  68895.1  60753.3
    6090.7  668936  70286.1  62083.9
    6094.3  674335  71696  63411.4
    6097.97  679621  72663.9  64228.5
    6101.71  684915  73581.7  64968.9
    6105.53  690042  74710.4  65957.4
    6109.43  696235  76152.1  67255.4
    6113.41  701949  77475.7  68444.4
    6117.46  707608  78607.2  69396.9
    6121.6  712999  79775.7  70392.2
    6125.81  719995  81292.2  71726.1
    6130.09  725047  82532.5  72795.5
    6134.45  731883  83826.7  73863.8
    6138.89  738304  84985  74767.7
    6143.41  744671  86171.1  75702.6
    6148.01  751820  87662.2  76955
    6152.68  758414  89376.2  78468.4
    6157.43  765357  90938.2  79796.4
    6162.26  771595  92118.1  80672.5
    6167.16  779305  93759.9  82031.8
    6172.14  786780  95932.7  84019
    6177.2  793711  98173.4  86090.9
    6182.33  801485  100048  87690.5
    6187.55  808879  102007  89371.7
    6192.84  816574  104112  91225.6
    6198.2  824689  106721  93613.3
    6203.65  832953  109553  96248.7
    6209.17  840306  111824  98254.4
    6214.77  848644  113987  100074
    6220.45  857144  115911  101588
    6226.2  865251  117659  102904
    6232.03  873997  119812  104652
    6237.94  872563  121544  106157
    6243.92  871108  122385  106875
    6249.98  898377  127749  111555
    6256.12  908393  130691  114095
    6262.34  917760  133319  116257
    6268.63  926827  136192  118704
    6275.01  935958  139387  121510
    6281.45  945571  142726  124438
    6287.98  955171  145893  127137
    6294.58  964237  148908  129660
    6301.26  974435  152128  132346
    6308.02  984311  155275  134928
    6314.85  993645  158839  138005
    6321.77  1.00359e+06  162692  141363
    6328.76  1.01384e+06  166876  145049
    6335.82  1.02454e+06  171060  148698
    6342.97  1.03541e+06  175109  152147
    6350.19  1.04519e+06  178820  155211
    6357.48  1.05595e+06  182815  158509
    6364.86  1.06628e+06  186901  161917
    6372.31  1.07714e+06  191300  165611
    6379.84  1.08828e+06  196100  169718
    6387.45  1.09901e+06  200691  173572
    6395.13  1.11026e+06  205259  177322
    6402.89  1.12149e+06  210153  181429
    6410.73  1.13282e+06  215296  185773
    6418.65  1.1444e+06  220451  190086
    6426.64  1.1561e+06  225971  194739
    6434.71  1.16707e+06  231311  199231
    6442.86  1.17794e+06  236637  203664
    6451.08  1.18894e+06  242421  208591
    6459.38  1.20201e+06  249008  214265
    6467.76  1.21415e+06  255318  219608
    6476.22  1.22642e+06  261563  224820
    6484.75  1.23847e+06  267830  230024
    6493.36  1.25004e+06  274037  235137
    6502.05  1.26216e+06  280516  240450
    6510.82  1.27444e+06  287381  246144
    6519.66  1.28718e+06  294144  251631
    6528.58  1.29999e+06  301406  257623
    6537.58  1.31266e+06  309022  263958
    6546.65  1.32436e+06  316755  270437
    6555.8  1.33727e+06  324966  277344
    6565.03  1.35088e+06  333687  284668
    6574.33  1.36336e+06  342149  291732
    6583.72  1.37665e+06  350680  298705
    6593.18  1.38842e+06  358869  305314
    6602.72  1.4024e+06  367845  312602
    6612.33  1.41467e+06  376834  319987
    6622.02  1.42774e+06  386453  327965
    6631.79  1.44112e+06  396210  336010
    6641.64  1.45396e+06  406165  344214
    6651.56  1.46806e+06  416787  352972
    6661.56  1.48133e+06  427460  361759
    6671.64  1.49365e+06  437869  370261
    6681.8  1.50885e+06  449345  379647
    6692.03  1.51942e+06  459437  387729
    6702.34  1.52992e+06  469680  395984
    6712.73  1.50424e+06  464802  391459
    6723.19  1.55287e+06  489662  411806
    6733.73  1.57853e+06  508741  427682
    6744.35  1.58881e+06  520852  437464
    6755.04  1.60897e+06  537192  450834
    6765.82  1.58611e+06  537972  451230
    6776.67  1.62998e+06  562157  471077
    6787.6  1.57431e+06  561481  470234
    6798.6  1.67466e+06  598228  500310
    6809.68  1.68172e+06  610244  509981
    6820.84  1.69292e+06  624789  521670
    6832.08  1.70634e+06  640460  534268
    6843.39  1.71902e+06  656314  546996
    6854.78  1.73111e+06  672232  559759
    6866.25  1.7447e+06  689240  573368