File: data/Cr/cr2o3_100K_001.xdi
# XDI/1.0
# Column.1: energy eV
# Column.2: i0
# Column.3: itrans
# Column.4: irefer
# Beamline.name: SSRL 2-3
# Beamline.notes: vert slits = 0.6mm
# Detector.I0: N2 15cm
# Detector.I1: N2 30cm
# Detector.I2: N2 15cm
# Element.edge: K
# Element.symbol: Cr
# Mono.d_spacing: 3.13550
# Mono.name: Si(111)
# Mono.notes: unfocused, detuned 75%, clockwise at E=5990eV
# Sample.formula: Cr2O3
# Sample.name: Cr2O3
# Sample.prep: powder on tape (4 layers)
# Sample.reference: Cr foil
# Sample.temperature: 100K
# Scan.start_time: 1997-04-18 21:40:35
# ///
#    Note: mono d_spacing is nominal!
#     exafs to K16
#     396  E XMU XMUR I0
#-------------
#   energy   i0   itrans  irefer
    5759.99  210049  10935.7  1395.3
    5780.01  209822  11360.7  1469.3
    5799.97  209475  11784.7  1543.3
    5820  209240  12224.7  1620.3
    5839.97  208881  12680.7  1700.3
    5860.02  208693  13145.7  1783.3
    5879.99  208016  13593.7  1868.3
    5899.97  207600  14074.7  1955.3
    5920.02  206827  14530.7  2043.3
    5939.99  206425  15009.7  2134.3
    5959.97  205723  15461.7  2222.3
    5970.49  205235  15679.7  2263.3
    5971.53  203831  15583.7  2250.3
    5972.49  202098  15473.7  2236.3
    5973.53  204817  15701.7  2271.3
    5974.5  205697  15789.7  2282.3
    5975.46  205736  15814.7  2288.3
    5976.51  205893  15847.7  2293.3
    5977.47  205830  15860.7  2295.3
    5978.52  206012  15892.7  2303.3
    5979.48  205680  15893.7  2302.3
    5980.53  205931  15924.7  2306.3
    5981.49  205793  15926.7  2308.3
    5982.46  206248  15979.7  2317.3
    5983.51  206129  15983.7  2317.3
    5984.48  206045  15988.7  2317.3
    5985.52  203968  15831.7  2292.3
    5986.49  190871  14816.7  2143.3
    5987.46  179932  13962.7  2017.3
    5988.51  196467  15232.7  2185.3
    5989.48  201901  15598.7  2201.3
    5990.53  203315  15499.7  2074.3
    5991.5  203976  15072.7  1925.3
    5992.47  204186  15091.7  1867.3
    5993.52  203934  14856.7  1791.3
    5994.49  204205  14290.7  1690.3
    5995.47  204242  13986.7  1636.3
    5996.51  204063  14064.7  1645.3
    5997.49  204348  14018.7  1634.3
    5998.54  204183  13677.7  1562.3
    5999.51  203956  12676.7  1397.3
    6000.49  203450  10814.7  1146.3
    6001.46  201039  8417.7   861.3
    6002.51  202310  6642.7   661.3
    6003.49  204198  6073.7   591.3
    6004.47  204125  5529.7   528.3
    6005.52  204129  4506.7   425.3
    6006.5  203895  3723.7   347.3
    6007.47  204019  2884.7   265.3
    6008.53  203655  2211.7   200.3
    6009.5  203887  2175.7   193.3
    6010.94  203607  2254.46   198.064
    6012.82  203869  1910.51   175.181
    6014.78  204061  2321.62   219.415
    6016.81  204384  2889.78   272.765
    6018.93  204342  3229   299.233
    6021.12  204615  3543.27   321.817
    6023.39  205187  3343.6   307.518
    6025.73  205477  3132.98   291.335
    6028.16  206194  3308.42   301.27
    6030.58  206499  3892.91   350.321
    6033.16  207257  4460.45   397.49
    6035.82  207779  4853.05   429.774
    6038.56  208717  5192.7   458.176
    6041.37  209514  5308.41   465.695
    6044.26  210479  5243.17   463.331
    6047.24  211580  5213.99   464.083
    6050.29  212446  5194.86   466.952
    6053.42  213737  4908.78   451.938
    6056.56  214809  4626.76   435.041
    6059.85  215891  4402.79   421.26
    6063.22  216827  4151.88   400.597
    6066.68  218003  4017.02   382.05
    6070.13  219466  4006.22   373.621
    6073.75  221130  4068.47   374.307
    6077.37  222581  4254.78   396.111
    6081.15  224102  4401.14   422.031
    6084.93  225954  4663.55   459.069
    6088.8  227800  4940.02   485.223
    6092.83  229596  5225.55   491.494
    6096.86  231536  5452.12   491.882
    6100.98  233533  5455.75   480.387
    6105.18  235565  5504.44   496.008
    6109.46  237738  5691.18   536.746
    6113.83  240109  5886.98   576.601
    6118.28  242263  5961.83   589.573
    6122.74  244360  6043.73   596.662
    6127.36  246644  6198.69   612.868
    6131.99  249323  6335.71   634.191
    6136.79  251952  6347.77   640.629
    6141.59  254570  6327.89   637.185
    6146.48  256973  6356.07   637.857
    6151.46  259844  6517.3   645.648
    6156.53  262389  6744.58   663.554
    6161.6  265217  6712.92   651.578
    6166.84  268033  6731.32   645.718
    6172.1  271094  6977.76   677.974
    6177.52  273907  7399.27   735.349
    6182.95  277097  7559.82   766.839
    6188.47  280043  7700.43   790.447
    6194.08  283461  7937.1   819.17
    6199.7  286899  8396.82   872.012
    6205.5  290031  8913.59   931.97
    6211.3  293297  9159.43   966.044
    6217.2  296326  9272.31   988.236
    6223.19  299670  9219.25   979.545
    6229.2  303104  9187.24   963.971
    6235.38  304125  9292.29   963.512
    6241.56  302931  9467.39   972.172
    6247.85  313919  9989.54  1028.95
    6254.23  317671  10338.7  1089.84
    6260.71  321737  10556  1135.85
    6267.2  325478  10695.3  1160.97
    6273.79  329282  11052.7  1205.22
    6280.48  333339  11482.1  1258.58
    6287.26  337191  11827.6  1298.05
    6294.06  340596  12047.2  1327.65
    6300.95  344736  12313.7  1370.36
    6307.95  348804  12452.4  1392.19
    6315.05  352531  12760.1  1425.13
    6322.16  356749  13225.8  1475.19
    6329.38  360701  13746.7  1530.37
    6336.69  365279  14308.5  1595.66
    6344.11  369508  14719.4  1647.07
    6351.55  373602  14947.4  1688.6
    6359.09  377562  15207.4  1732.24
    6366.65  381583  15515.5  1790.01
    6374.31  385600  15855.6  1843.88
    6382.07  390031  16416.8  1916.88
    6389.95  394236  16824.1  1972.99
    6397.84  398947  17119.4  2015.22
    6405.84  403476  17558.7  2074.57
    6413.95  407106  18008.1  2133.03
    6422.08  411622  18446.6  2201.61
    6430.32  415729  18981.1  2267.31
    6438.58  420686  19470.7  2331.12
    6446.95  424802  19885.3  2389.05
    6455.43  429055  20578  2498.09
    6463.93  433738  21338.7  2611.26
    6472.55  438397  21980.5  2700.54
    6481.28  442924  22514.3  2783.93
    6490.03  447285  23028.2  2863.45
    6498.9  452238  23493.2  2931.08
    6507.79  455855  23991.2  3001.83
    6516.8  460441  24551.3  3090.69
    6525.92  465325  24998.4  3172.67
    6535.07  469670  25640.5  3276.77
    6544.25  473363  26334.7  3376.98
    6553.54  477459  27092  3486.32
    6562.95  481765  27908.4  3603.77
    6572.4  485861  28778.7  3730.33
    6581.96  490703  29481.2  3842.01
    6591.55  495197  30083.7  3947.81
    6601.26  499516  30573.2  4037.73
    6611.09  504425  31208.8  4139.76
    6620.95  508391  32079.5  4281.91
    6630.85  513633  32936.2  4411.18
    6640.87  517700  33757  4550.56
    6650.92  522049  34659.8  4695.06
    6661.1  525452  35526.7  4838.67
    6671.31  529172  36325.6  4966.41
    6681.64  533200  37124.6  5105.26
    6692.01  535782  37817.6  5221.23
    6702.51  510926  36482.7  5067.31
    6713.04  551404  39990.9  5574.52
    6723.7  551980  40615.1  5685.83
    6734.4  553476  41382.3  5825.26
    6745.14  558821  42428.6  6005.82
    6756  560058  43215  6151.49
    6766.91  568581  44599.4  6381.27
    6777.94  573467  45733.9  6579.17
    6789.02  575327  46544.4  6729.19
    6800.23  573664  47063  6850.33
    6811.48  593100  49495.6  7237.58
    6822.77  591779  50276.4  7387.95
    6834.19  594603  51327.1  7576.43
    6845.66  597793  52476.9  7789.03
    6857.16  601520  53641.7  8007.75
    6868.81  604516  54797.7  8219.59
    6880.5  608307  55888.6  8425.54
    6892.33  610529  56905.6  8622.61
    6904.2  613758  58076.7  8853.8
    6916.11  616618  59326.8  9093.11
    6928.18  619018  60530  9334.52
    6940.28  622347  61811.3  9587.06
    6952.43  625263  63150.5  9847.71
    6964.62  628125  64527.8  10106.5
    6976.96  632004  65993.3  10399.4
    6989.35  634264  67247.8  10655.4
    7001.88  637670  68646.3  10927.5
    7014.47  640134  69907.8  11185.7
    7027.1  642451  71174.4  11441.1
    7039.77  645760  72648.1  11734.6
    7052.6  648456  74060.8  12020.2
    7065.48  651001  75567.6  12325.9
    7078.41  654270  77217.5  12653.7
    7091.39  656214  78721.3  12969.6
    7104.53  658319  80088.3  13269.7
    7111.06  659603  80837.5  13423.5