File: data/Cr/cr2o3_100K_002.xdi
# XDI/1.0
# Column.1: energy eV
# Column.2: i0
# Column.3: itrans
# Column.4: irefer
# Beamline.name: SSRL 2-3
# Beamline.notes: vert slits = 0.6mm
# Detector.I0: N2 15cm
# Detector.I1: N2 30cm
# Detector.I2: N2 15cm
# Element.edge: K
# Element.symbol: Cr
# Mono.d_spacing: 3.13550
# Mono.name: Si(111)
# Mono.notes: unfocused, detuned 75%, clockwise at E=5990eV
# Sample.formula: Cr2O3
# Sample.name: Cr2O3
# Sample.prep: powder on tape (4 layers)
# Sample.reference: Cr foil
# Sample.temperature: 100K
# Scan.start_time: 1997-04-18 21:40:35
# ///
#    Note: mono d_spacing is nominal!
#     exafs to K16
#     396  E XMU XMUR I0
#-------------
#   energy   i0   itrans  irefer
    5759.99  210667  10964.7  1402.3
    5780.01  210682  11398.7  1474.3
    5799.97  210435  11834.7  1550.3
    5820  210073  12275.7  1629.3
    5839.97  209787  12733.7  1710.3
    5860.02  209488  13200.7  1794.3
    5879.99  209017  13665.7  1879.3
    5899.97  208458  14128.7  1966.3
    5920.02  207870  14604.7  2056.3
    5939.99  207192  15068.7  2147.3
    5959.97  206739  15534.7  2235.3
    5970.49  206186  15739.7  2275.3
    5971.53  204628  15642.7  2260.3
    5972.49  202769  15523.7  2247.3
    5973.53  205836  15779.7  2285.3
    5974.5  206443  15854.7  2298.3
    5975.46  206646  15879.7  2301.3
    5976.51  206439  15888.7  2303.3
    5977.47  206622  15929.7  2308.3
    5978.52  206417  15931.7  2310.3
    5979.48  206708  15973.7  2315.3
    5980.53  206643  15980.7  2317.3
    5981.49  206725  15995.7  2319.3
    5982.46  206783  16019.7  2323.3
    5983.51  206874  16037.7  2324.3
    5984.48  206908  16053.7  2326.3
    5985.52  204776  15892.7  2302.3
    5986.49  191474  14864.7  2151.3
    5987.46  180689  14022.7  2025.3
    5988.51  197308  15291.7  2193.3
    5989.48  202483  15643.7  2207.3
    5990.53  204177  15561.7  2078.3
    5991.5  204505  15105.7  1931.3
    5992.47  204796  15149.7  1873.3
    5993.52  205028  14936.7  1798.3
    5994.49  205116  14346.7  1697.3
    5995.47  204778  14027.7  1642.3
    5996.51  204776  14119.7  1652.3
    5997.49  204401  14024.7  1636.3
    5998.54  204721  13699.7  1564.3
    5999.51  204746  12709.7  1399.3
    6000.49  203948  10816.7  1147.3
    6001.46  201586  8432.7   863.3
    6002.51  202795  6645.7   659.3
    6003.49  204737  6086.7   591.3
    6004.47  204547  5529.7   525.3
    6005.52  204496  4504.7   422.3
    6006.5  204544  3724.7   343.3
    6007.47  204457  2887.7   261.3
    6008.53  204564  2223.7   198.3
    6009.5  204375  2184.7   192.3
    6010.94  204387  2267.46   196.064
    6012.82  204439  1917.51   172.181
    6014.78  204571  2335.62   217.415
    6016.81  204873  2900.78   269.765
    6018.93  204866  3244   294.233
    6021.12  205234  3556.27   318.817
    6023.39  205680  3349.6   302.518
    6025.73  206044  3141.98   286.335
    6028.16  207040  3323.41   297.27
    6030.58  207214  3909.91   343.321
    6033.16  207749  4473.45   391.49
    6035.82  208533  4874.05   426.774
    6038.56  209470  5212.7   451.176
    6041.37  210183  5325.41   458.695
    6044.26  211324  5267.17   456.331
    6047.24  211958  5223.99   458.083
    6050.29  213144  5215.85   463.952
    6053.42  214514  4928.78   448.938
    6056.56  215651  4650.76   432.041
    6059.85  216657  4423.79   417.26
    6063.22  217369  4166.88   395.597
    6066.68  218686  4034.02   377.05
    6070.13  219998  4021.22   366.621
    6073.75  221970  4085.47   367.307
    6077.37  223800  4276.78   393.111
    6081.15  225374  4428.14   420.031
    6084.93  227135  4687.55   457.069
    6088.8  228924  4965.02   481.223
    6092.83  230892  5254.54   490.494
    6096.86  232698  5483.12   489.882
    6100.98  234649  5481.76   478.387
    6105.18  236780  5535.44   493.008
    6109.46  238682  5715.18   532.746
    6113.83  240826  5907.98   571.601
    6118.28  243413  5990.83   588.573
    6122.74  245781  6076.73   594.662
    6127.36  248009  6234.69   610.868
    6131.99  250571  6366.71   633.191
    6136.79  252850  6370.77   638.629
    6141.59  255614  6355.89   634.185
    6146.48  258247  6385.07   635.858
    6151.46  260716  6535.3   643.648
    6156.53  263528  6767.58   666.554
    6161.6  266478  6736.92   651.578
    6166.84  269334  6761.32   644.718
    6172.1  272200  6996.76   676.975
    6177.52  275402  7433.27   738.349
    6182.95  278705  7604.82   770.839
    6188.47  281268  7733.44   788.447
    6194.08  284794  7974.1   818.17
    6199.7  287620  8410.82   868.012
    6205.5  291154  8944.6   928.971
    6211.3  294223  9184.42   967.044
    6217.2  297776  9311.31   986.236
    6223.19  301246  9269.24   975.544
    6229.2  304569  9231.24   961.97
    6235.38  304856  9311.29   957.512
    6241.56  304450  9512.39   973.171
    6247.85  314959  10022.5  1025.95
    6254.23  318793  10368.8  1085.84
    6260.71  322797  10586  1135.85
    6267.2  326326  10718.3  1159.97
    6273.79  330030  11067.7  1203.22
    6280.48  333977  11501.1  1259.58
    6287.26  337884  11847.6  1298.05
    6294.06  341693  12081.1  1327.65
    6300.95  345615  12339.7  1369.36
    6307.95  349750  12480.4  1392.18
    6315.05  353771  12798.1  1432.13
    6322.16  357694  13250.8  1475.19
    6329.38  361914  13789.6  1533.37
    6336.69  365906  14328.5  1593.66
    6344.11  370283  14736.4  1651.07
    6351.55  375086  14999.4  1693.6
    6359.09  379387  15272.4  1739.24
    6366.65  382589  15549.5  1791.01
    6374.31  386597  15888.6  1844.88
    6382.07  391387  16462.8  1914.88
    6389.95  395526  16874.1  1966.99
    6397.84  400056  17159.4  2012.22
    6405.84  404500  17601.7  2066.57
    6413.95  408698  18073.1  2136.03
    6422.08  413379  18519.6  2202.61
    6430.32  417780  19063.1  2269.31
    6438.58  422368  19548.7  2332.12
    6446.95  426636  19957.3  2389.05
    6455.43  431361  20682  2491.09
    6463.93  435509  21418.7  2600.26
    6472.55  440256  22065.5  2688.54
    6481.28  444704  22594.4  2771.94
    6490.03  449277  23128.2  2853.45
    6498.9  454444  23598.2  2922.08
    6507.79  458733  24141.2  3003.83
    6516.8  462675  24663.2  3086.69
    6525.92  467743  25133.4  3175.67
    6535.07  472131  25771.5  3274.77
    6544.25  475919  26469.8  3378.99
    6553.54  480827  27278  3496.32
    6562.95  484749  28062.4  3612.76
    6572.4  489698  28999.8  3752.33
    6581.96  493828  29651.2  3860.01
    6591.55  497568  30208.7  3956.81
    6601.26  502282  30729.2  4042.73
    6611.09  506601  31328.8  4143.76
    6620.95  511192  32233.5  4281.91
    6630.85  516084  33074.2  4417.18
    6640.87  520463  33919  4556.56
    6650.92  524135  34778.8  4702.06
    6661.1  529323  35767.7  4859.68
    6671.31  533419  36598.6  4996.41
    6681.64  537433  37400.6  5131.26
    6692.01  540332  38120.6  5256.23
    6702.51  514797  36738.7  5084.31
    6713.04  555337  40238.9  5602.52
    6723.7  556082  40871.1  5721.83
    6734.4  557753  41662.3  5865.26
    6745.14  563150  42729.6  6043.82
    6756  564466  43526  6188.49
    6766.91  572445  44873.4  6415.27
    6777.94  577875  46062.9  6617.17
    6789.02  578605  46799.4  6756.19
    6800.23  577620  47394  6884.32
    6811.48  597192  49820.6  7275.58
    6822.77  595303  50565.3  7419.94
    6834.19  598216  51636.1  7615.43
    6845.66  601017  52757.9  7820.03
    6857.16  605137  53959.7  8041.76
    6868.81  608455  55148.7  8265.59
    6880.5  610876  56113.6  8454.54
    6892.33  613771  57203.6  8664.61
    6904.2  618047  58479.7  8903.8
    6916.11  621750  59813.9  9157.11
    6928.18  623615  60972  9384.52
    6940.28  626923  62268.2  9634.06
    6952.43  629724  63600.6  9898.72
    6964.62  632965  65013.9  10177.5
    6976.96  636055  66432.3  10448.4
    6989.35  637956  67638.7  10684.4
    7001.88  640494  68940.2  10946.5
    7014.47  642944  70212.8  11211.7
    7027.1  644774  71428.4  11466.1
    7039.77  648677  72962.1  11769.6
    7052.6  650675  74311.8  12045.1
    7065.48  652800  75763.6  12343.9
    7078.41  655717  77344.4  12670.7
    7091.39  657548  78861.3  12985.6
    7104.53  659740  80240.3  13281.7
    7111.06  660909  80971.5  13434.5