File: data/Cr/cr2o3_ssrl4_1_rt_001.xdi
# XDI/1.0
# Column.1: energy eV
# Column.2: i0
# Column.3: itrans
# Column.4: irefer
# Beamline.name: SSRL 4-1
# Detector.I0: N2 15cm
# Detector.I1: N2 30cm
# Detector.I2: N2 15cm
# Element.edge: K
# Element.symbol: Cr
# Mono.d_spacing: 3.13550
# Mono.name: Si(111)
# Mono.notes: unfocused, detuned 30%,counter clockwise at E=6200eV
# Sample.formula: Cr2O3
# Sample.name: Cr2O3 chromium sesquioxide
# Sample.prep: powder, mixed 1:100 with B(OH)3 by wt
# Sample.reference: none
# Sample.temperature: room temperature
# Scan.start_time: 1997-01-20 20:45:03
# ///
#    Note: mono d_spacing is nominal!
#     exafs to K15: not great data!!  fluorescence signal included
#     381  E XMU XMUF I0
#-------------
#   energy   i0   itrans  irefer
    5789  520599  39920.7  39067.9
    5810.25  523820  41975.7  41058.7
    5831.5  525324  44042.7  43059.5
    5852.75  528882  46335.7  45278.6
    5874  535232  48938.7  47796.9
    5895.25  538441  51434.7  50207.3
    5916.5  541259  54042.7  52722.1
    5937.75  544823  56896.7  55463.8
    5959  548157  59738.7  58199.3
    5960.52  548309  59930.7  58381.2
    5962.03  548511  60140.7  58582.1
    5963.54  548854  60354.7  58788.8
    5965.06  548274  60458.7  58883.6
    5966.58  549230  60749.7  59163
    5968.09  549402  60950.7  59353.6
    5969.6  549584  61139.7  59535
    5971.12  549244  61253.7  59641
    5972.64  549047  61122.7  59507.5
    5974.15  544701  61287.7  59662.2
    5975.67  544551  61688.7  60047.2
    5977.18  544660  61445.7  59802.1
    5978.7  548648  62115.7  60451.4
    5980.21  550571  62503.7  60821.7
    5981.73  551034  62723.7  61027
    5983.24  550107  62700.7  60994.7
    5984.76  538946  60478.7  58815.9
    5986.27  501377  59064.7  57399.6
    5987.79  540488  62465.7  60705
    5989.3  547779  62870.7  61021.7
    5990.82  549802  62790.7  60785.5
    5992.33  550699  62737.7  60664.3
    5993.85  550333  61813.7  59553.7
    5995.36  544631  61648.7  59347.9
    5996.88  542163  61294.7  58910
    5998.39  547542  60080.7  57307.8
    5999.91  551210  56827.7  53222.6
    6001.42  551981  53692.7  49314.1
    6002.94  552559  52109.7  47369.7
    6004.45  552686  49540.7  44348.5
    6005.97  552596  46650.7  41000.1
    6007.49  553058  44873.7  38823.7
    6009  553115  45024.7  38925.1
    6009.04  552985  45011.7  38912.8
    6009.15  552956  44986.6  38890.4
    6009.35  553879  45030.4  38921.8
    6009.62  553824  44918.2  38802.8
    6009.97  554182  44764.9  38632.2
    6010.39  555214  44597.5  38409.1
    6010.89  556032  44427.1  38173.7
    6011.47  556800  44430.6  38112.5
    6012.13  557826  44813.1  38453.5
    6012.86  559162  45666.4  39320.7
    6013.67  559645  46644.7  40396.7
    6014.56  561722  47691  41537.5
    6015.53  562756  48357.2  42271.1
    6016.57  564164  49007.2  42949.9
    6017.69  565575  49741.3  43728.2
    6018.88  567548  50470.3  44495.6
    6020.16  569744  50872.2  44894.2
    6021.51  571752  50817  44765.2
    6022.94  573431  50646.8  44480.6
    6024.44  575631  50811.5  44555.1
    6026.03  577711  51400.2  45108.4
    6027.69  580707  52639.8  46394
    6029.43  582840  53977.3  47830.1
    6031.24  585639  55277.7  49219.1
    6033.14  588544  56372.1  50365.7
    6035.1  591226  57367.5  51395.3
    6037.15  593814  58232.7  52280.1
    6039.27  597224  58947.9  52954.8
    6041.47  600024  59344  53275.5
    6043.75  603247  59645.1  53456.5
    6046.11  606781  60185.1  53900.1
    6048.54  610396  60660  54277.6
    6051.05  613826  60728.9  54184
    6053.64  617926  60684.7  53927.4
    6056.3  621250  60780.4  53852.8
    6059.04  624396  60794.1  53683.3
    6061.86  627281  60842.7  53547.5
    6064.76  631195  61177.2  53723
    6067.73  635551  61777.7  54189.2
    6070.78  639891  62494  54776.6
    6073.91  644238  63483.4  55675.5
    6077.11  648738  64567.6  56679.4
    6080.4  653915  65754.8  57772
    6083.76  657952  67040  59007.7
    6087.19  663501  68494  60399.2
    6090.7  668402  69911.1  61749.5
    6094.3  673279  71237  63004.5
    6097.97  678362  72173.9  63794.9
    6101.71  684291  73163.7  64598.7
    6105.53  689627  74320.4  65605.8
    6109.43  695290  75681.1  66841.2
    6113.41  701003  77013.7  68032.5
    6117.46  707086  78194.2  69028.5
    6121.6  712677  79381.8  70041.3
    6125.81  719133  80830.1  71315.9
    6130.09  725305  82213.5  72517.6
    6134.45  731332  83389.8  73478
    6138.89  737764  84545  74376.6
    6143.41  744013  85727.1  75312.9
    6148.01  750852  87169.2  76518.6
    6152.68  757974  88938.2  78080.8
    6157.43  764937  90503.2  79411
    6162.26  771542  91710.1  80315.2
    6167.16  778338  93232.9  81564.4
    6172.14  786213  95430.6  83570.8
    6177.2  793597  97726.4  85691.7
    6182.33  800817  99534.9  87238
    6187.55  807892  101405  88843.5
    6192.84  816355  103638  90805.3
    6198.2  823924  106146  93103.5
    6203.65  832260  108962  95722.9
    6209.17  839463  111220  97723.6
    6214.77  847888  113384  99543.1
    6220.45  856482  115302  101052
    6226.2  865305  117152  102456
    6232.03  873396  119227  104134
    6237.94  870972  120808  105509
    6243.92  871438  121730  106292
    6249.98  898767  127256  111119
    6256.12  907868  130064  113544
    6262.34  916911  132642  115668
    6268.63  926347  135542  118139
    6275.01  935118  138659  120874
    6281.45  944795  142037  123833
    6287.98  954808  145245  126574
    6294.58  964565  148363  129179
    6301.26  974195  151499  131794
    6308.02  983480  154572  134317
    6314.85  993257  158168  137412
    6321.77  1.00303e+06  161997  140755
    6328.76  1.01399e+06  166266  144519
    6335.82  1.02381e+06  170271  148006
    6342.97  1.03476e+06  174339  151465
    6350.19  1.04474e+06  178094  154578
    6357.48  1.05631e+06  182232  157996
    6364.86  1.06573e+06  186146  161256
    6372.31  1.07685e+06  190563  164964
    6379.84  1.08762e+06  195260  168979
    6387.45  1.09865e+06  199901  172884
    6395.13  1.11013e+06  204518  176671
    6402.89  1.12147e+06  209407  180776
    6410.73  1.13164e+06  214315  184910
    6418.65  1.14324e+06  219457  189221
    6426.64  1.15531e+06  224979  193887
    6434.71  1.16628e+06  230316  198363
    6442.86  1.17799e+06  235753  202895
    6451.08  1.18943e+06  241639  207903
    6459.38  1.20142e+06  247940  213323
    6467.76  1.21327e+06  254134  218597
    6476.22  1.22626e+06  260537  223936
    6484.75  1.23704e+06  266506  228889
    6493.36  1.25042e+06  273145  234360
    6502.05  1.26177e+06  279453  239531
    6510.82  1.27414e+06  286302  245206
    6519.66  1.28713e+06  293150  250769
    6528.58  1.30032e+06  300429  256791
    6537.58  1.31155e+06  307693  262800
    6546.65  1.3253e+06  315903  269711
    6555.8  1.33759e+06  323900  276421
    6565.03  1.35012e+06  332273  283444
    6574.33  1.3632e+06  340887  290645
    6583.72  1.3765e+06  349388  297601
    6593.18  1.38931e+06  357898  304475
    6602.72  1.40219e+06  366528  311465
    6612.33  1.41608e+06  375914  319204
    6622.02  1.42863e+06  385366  327039
    6631.79  1.44344e+06  395512  335404
    6641.64  1.45506e+06  405093  343288
    6651.56  1.4688e+06  415626  351972
    6661.56  1.48241e+06  426331  360795
    6671.64  1.49695e+06  437329  369789
    6681.8  1.50837e+06  447643  378186
    6692.03  1.52158e+06  458536  386977
    6702.34  1.53073e+06  468267  394784
    6712.73  1.50566e+06  463468  390317
    6723.19  1.55438e+06  488568  410832
    6733.73  1.582e+06  508135  427158
    6744.35  1.5913e+06  519862  436620
    6755.04  1.61221e+06  536586  450303
    6765.82  1.58808e+06  536969  450372
    6776.67  1.63353e+06  561449  470464
    6787.6  1.57796e+06  560792  469636
    6798.6  1.67886e+06  597590  499757
    6809.68  1.68554e+06  609479  509317
    6820.84  1.69697e+06  624027  521036
    6832.08  1.71307e+06  640672  534459
    6843.39  1.72312e+06  655412  546261
    6854.78  1.73658e+06  671929  559482
    6866.25  1.74954e+06  688600  572815