File: data/Cr/cr2o3_15K_001.xdi
# XDI/1.0
# Column.1: energy eV
# Column.2: i0
# Column.3: itrans
# Column.4: irefer
# Beamline.name: SSRL 2-3
# Beamline.notes: vert slits = 0.6mm
# Detector.I0: N2 15cm
# Detector.I1: N2 30cm
# Detector.I2: N2 15cm
# Element.edge: K
# Element.symbol: Cr
# Mono.d_spacing: 3.13550
# Mono.name: Si(111)
# Mono.notes: unfocused, detuned 75%, clockwise at E=5990eV
# Sample.formula: Cr2O3
# Sample.name: Cr2O3
# Sample.prep: powder on tape (4 layers)
# Sample.reference: Cr foil
# Sample.temperature: 15K
# Scan.start_time: 1997-04-18 10:20:18
# ///
#    Note: mono d_spacing is nominal!
#     exafs to K16
#     396  E XMU XMUR I0
#-------------
#   energy   i0   itrans  irefer
    5759.99  213083  17480.7  2218.3
    5780.01  211320  17926.7  2301.3
    5799.97  209519  18379.7  2390.3
    5820  207936  18860.7  2482.3
    5839.97  206404  19345.7  2577.3
    5860.02  204753  19818.7  2672.3
    5879.99  203127  20305.7  2772.3
    5899.97  201047  20746.7  2865.3
    5920.02  199385  21224.7  2969.3
    5939.99  197608  21688.7  3067.3
    5959.97  196098  22174.7  3169.3
    5970.49  194600  22337.7  3212.3
    5971.53  193792  22291.7  3204.3
    5972.49  191264  22030.7  3169.3
    5973.53  192753  22190.7  3194.3
    5974.5  194177  22415.7  3225.3
    5975.46  194164  22449.7  3232.3
    5976.51  193855  22437.7  3233.3
    5977.47  193736  22450.7  3234.3
    5978.52  193421  22455.7  3237.3
    5979.48  193265  22458.7  3238.3
    5980.53  193151  22481.7  3238.3
    5981.49  193198  22510.7  3244.3
    5982.46  192799  22495.7  3243.3
    5983.51  192919  22544.7  3248.3
    5984.48  192639  22541.7  3248.3
    5985.52  192596  22573.7  3252.3
    5986.49  186781  21951.7  3160.3
    5987.46  169032  19826.7  2851.3
    5988.51  177908  20900.7  2994.3
    5989.48  185679  21883.7  3104.3
    5990.53  188198  22177.7  3035.3
    5991.5  188820  22220.7  2883.3
    5992.47  188666  22170.7  2771.3
    5993.52  189154  22268.7  2700.3
    5994.49  188827  22175.7  2629.3
    5995.47  188767  22120.7  2583.3
    5996.51  188636  22132.7  2571.3
    5997.49  188577  22154.7  2573.3
    5998.54  188289  22119.7  2540.3
    5999.51  188182  22024.7  2450.3
    6000.49  187466  21724.7  2322.3
    6001.46  185668  21086.7  2169.3
    6002.51  185162  20615.7  2049.3
    6003.49  187404  20562.7  1995.3
    6004.47  187648  20472.7  1944.3
    6005.52  187367  20183.7  1880.3
    6006.5  187211  19876.7  1820.3
    6007.47  186939  19563.7  1759.3
    6008.53  186982  19182.7  1691.3
    6009.5  186579  19022.7  1648.3
    6010.94  186562  19108.5  1616.07
    6012.82  186293  18931.5  1634.18
    6014.78  186326  19072.6  1730.41
    6016.81  186174  19474.8  1792.77
    6018.93  186332  19715  1782.23
    6021.12  186253  19929.3  1769.82
    6023.39  186561  19976.6  1783.52
    6025.73  186793  19938  1798.34
    6028.16  186975  20039.4  1782.27
    6030.58  187229  20357.9  1782.32
    6033.16  187595  20712.4  1797.49
    6035.82  188200  20986  1822.77
    6038.56  188421  21205.7  1834.18
    6041.37  189216  21417.4  1838.7
    6044.26  189567  21522.2  1855.33
    6047.24  190332  21657  1885.08
    6050.29  190900  21794.9  1916.95
    6053.42  191662  21871.8  1965.94
    6056.56  192767  21959.8  2019.04
    6059.85  193434  22033.8  2058.26
    6063.22  193632  22037.9  2072.6
    6066.68  194562  22170  2063.05
    6070.13  195584  22367.2  2036.62
    6073.75  196975  22627.5  2019.31
    6077.37  197962  22913.8  2081.11
    6081.15  199097  23209.1  2171.03
    6084.93  200476  23560.5  2269.07
    6088.8  201596  23899  2302.22
    6092.83  203094  24286.5  2255.49
    6096.86  204565  24656.1  2193.88
    6100.98  205861  24927.8  2158.39
    6105.18  207358  25240.4  2216.01
    6109.46  208965  25623.2  2354.75
    6113.83  210481  25990  2485.6
    6118.28  212039  26323.8  2557.57
    6122.74  213793  26686.7  2582.66
    6127.36  215566  27088.7  2621.87
    6131.99  217220  27490.7  2696.19
    6136.79  218995  27873.8  2761.63
    6141.59  220638  28216.9  2788.18
    6146.48  222364  28586.1  2813.86
    6151.46  224606  29073.3  2829.65
    6156.53  226487  29552.6  2862.55
    6161.6  228295  29935.9  2859.58
    6166.84  230171  30347.3  2850.72
    6172.1  232102  30844.8  2940.97
    6177.52  233944  31400.3  3080.35
    6182.95  236037  31921.8  3197.84
    6188.47  238158  32431.4  3281.45
    6194.08  240450  33010.1  3358.17
    6199.7  242521  33622.8  3447.01
    6205.5  244679  34303.6  3538.97
    6211.3  246718  34865.4  3637.05
    6217.2  249182  35453.3  3732.24
    6223.19  251503  35999.3  3771.54
    6229.2  253932  36528.3  3785.97
    6235.38  255333  37004.3  3779.51
    6241.56  252752  36887.4  3732.17
    6247.85  260246  38375.5  3894.94
    6254.23  262910  39102.8  4052.84
    6260.71  265142  39730  4230.85
    6267.2  267665  40403.3  4333.98
    6273.79  270051  41113.7  4424.22
    6280.48  272542  41894.1  4537.58
    6287.26  274929  42632.6  4635.05
    6294.06  277044  43292.1  4723.65
    6300.95  279984  44116.8  4850.36
    6307.95  282152  44779.4  4954.19
    6315.05  285000  45599.1  5054.13
    6322.16  287409  46420.8  5125.19
    6329.38  289663  47237.6  5207.37
    6336.69  292340  48159.5  5312.66
    6344.11  294576  48975.4  5435.07
    6351.55  297243  49792.4  5574.6
    6359.09  299575  50607.4  5711.25
    6366.65  301840  51430.5  5874.01
    6374.31  304298  52286.7  6016.89
    6382.07  306670  53220.8  6147.88
    6389.95  308893  54121.1  6278.99
    6397.84  311319  55002.4  6413.22
    6405.84  313803  55973.7  6543.57
    6413.95  315760  56856.2  6672.03
    6422.08  318064  57802.6  6823.61
    6430.32  320474  58837.1  6974.31
    6438.58  322482  59744.7  7090.12
    6446.95  324757  60710.3  7230.05
    6455.43  326707  61739  7409.09
    6463.93  328984  62834.7  7604.26
    6472.55  330923  63829.5  7766.54
    6481.28  333206  64878.3  7941.93
    6490.03  335244  65908.2  8113.44
    6498.9  337257  66898.2  8264.09
    6507.79  339223  67937.2  8429.83
    6516.8  340971  68965.2  8618.69
    6525.92  342909  70000.4  8798.67
    6535.07  344599  71029.5  8982.78
    6544.25  346119  72088.7  9155.98
    6553.54  347141  73041.1  9304.32
    6562.95  348838  74167.4  9490.77
    6572.4  350425  75299.7  9691.33
    6581.96  351585  76288.2  9883.01
    6591.55  353605  77462.7  10094.8
    6601.26  355240  78547.3  10288.7
    6611.09  356541  79586.8  10477.8
    6620.95  357910  80734.5  10681.9
    6630.85  359222  81841.2  10881.2
    6640.87  360124  82884.9  11075.6
    6650.92  360874  83873.8  11268.1
    6661.1  362431  85086.7  11497.7
    6671.31  362968  86056.6  11691.4
    6681.64  363230  86975.5  11870.3
    6692.01  362910  87762.6  12037.2
    6702.51  345046  84970.7  11701.3
    6713.04  373810  92231.9  12764.5
    6723.7  370347  92245.1  12821.8
    6734.4  368155  92640.3  12947.3
    6745.14  370020  94074.6  13229.8
    6756  367722  94577  13371.5
    6766.91  374243  97116.4  13800.3
    6777.94  375201  98361.9  14055.2
    6789.02  373144  98817.4  14201.2
    6800.23  367642  98278  14192.3
    6811.48  387769  104609  15201.6
    6822.77  379223  103596  15128.9
    6834.19  377822  104301  15302.4
    6845.66  377270  105217  15536
    6857.16  377324  106326  15774.7
    6868.81  376758  107265  15996.6
    6880.5  376888  108408  16258.5
    6892.33  376582  109432  16501.6
    6904.2  376469  110541  16769.8
    6916.11  375998  111521  17012.1
    6928.18  374764  112362  17227.5
    6940.28  375445  113680  17537.1
    6952.43  374368  114567  17762.7
    6964.62  374080  115662  18031.5
    6976.96  373898  116800  18299.4
    6989.35  373291  117776  18556.4
    7001.88  372982  118901  18828.5
    7014.47  372780  120034  19107.7
    7027.1  371566  120825  19333.1
    7039.77  371462  122040  19628.6
    7052.6  371176  123148  19901.1
    7065.48  370669  124219  20181.8
    7078.41  370205  125289  20460.7
    7091.39  369286  126300  20726.6
    7104.53  368501  127265  20995.7
    7111.06  368443  127872  21152.5