File: data/Cr/cr2s3_100K_001.xdi
# XDI/1.0
# Column.1: energy eV
# Column.2: i0
# Column.3: itrans
# Column.4: irefer
# Beamline.name: SSRL 2-3
# Beamline.notes: vert slits = 0.6mm
# Detector.I0: N2 15cm
# Detector.I1: N2 30cm
# Detector.I2: N2 15cm
# Element.edge: K
# Element.symbol: Cr
# Mono.d_spacing: 3.13550
# Mono.name: Si(111)
# Mono.notes: unfocused, detuned 75%, clockwise at E=5990eV
# Sample.formula: Cr2S3
# Sample.name: Cr2S3
# Sample.prep: powder on tape (4 layers)
# Sample.reference: Cr foil
# Sample.temperature: 100K
# Scan.start_time: 1997-04-18 17:59:32
# ///
#    Note: mono d_spacing is nominal!
#     exafs to K16
#     396  E XMU XMUR I0
#-------------
#   energy   i0   itrans  irefer
    5759.99  222218  9172.7  1169.3
    5780.01  221875  9543.7  1231.3
    5799.97  221333  9910.7  1294.3
    5820  221035  10306.7  1365.3
    5839.97  220383  10693.7  1433.3
    5860.02  220005  11102.7  1506.3
    5879.99  219342  11512.7  1581.3
    5899.97  218766  11928.7  1657.3
    5920.02  217784  12334.7  1733.3
    5939.99  217258  12762.7  1816.3
    5959.97  216778  13195.7  1895.3
    5970.49  216225  13395.7  1935.3
    5971.53  215021  13342.7  1926.3
    5972.49  212527  13204.7  1909.3
    5973.53  215110  13392.7  1936.3
    5974.5  216307  13486.7  1948.3
    5975.46  216217  13503.7  1951.3
    5976.51  216396  13532.7  1960.3
    5977.47  216444  13558.7  1963.3
    5978.52  216743  13593.7  1970.3
    5979.48  216735  13612.7  1974.3
    5980.53  216329  13605.7  1975.3
    5981.49  216262  13626.7  1975.3
    5982.46  216233  13637.7  1979.3
    5983.51  216644  13679.7  1983.3
    5984.48  216893  13711.7  1987.3
    5985.52  215626  13643.7  1975.3
    5986.49  205631  13015.7  1883.3
    5987.46  186797  11833.7  1710.3
    5988.51  204471  12952.7  1862.3
    5989.48  211169  13345.7  1893.3
    5990.53  213282  13343.7  1807.3
    5991.5  213807  13106.7  1689.3
    5992.47  214138  12866.7  1604.3
    5993.52  214221  12763.7  1544.3
    5994.49  214503  12799.7  1515.3
    5995.47  214620  12709.7  1487.3
    5996.51  214728  12101.7  1411.3
    5997.49  214506  10663.7  1243.3
    5998.54  214558  9078.7  1041.3
    5999.51  214628  8169.7   904.3
    6000.49  213588  7713.7   821.3
    6001.46  210905  7739.7   794.3
    6002.51  211665  8199.7   814.3
    6003.49  213866  8634.7   837.3
    6004.47  213954  8717.7   828.3
    6005.52  213820  8472.7   790.3
    6006.5  213951  8193.7   752.299
    6007.47  213790  7968.7   718.3
    6008.53  213482  7775.7   689.3
    6009.5  213967  7673.7   667.3
    6010.94  214002  7494.45   638.064
    6012.82  213852  7293.51   642.181
    6014.78  213713  7361.62   674.415
    6016.81  214082  7493.78   693.764
    6018.93  214313  7492   678.233
    6021.12  214591  7508.27   670.817
    6023.39  215015  7571.6   681.518
    6025.73  215396  7721.98   698.335
    6028.16  215945  7990.41   712.27
    6030.58  216526  8209.9   722.321
    6033.16  217632  8520.45   743.49
    6035.82  218285  8897.05   776.774
    6038.56  218760  9080.7   787.176
    6041.37  219994  9121.4   785.695
    6044.26  220727  9066.17   785.331
    6047.24  221777  9069.99   793.083
    6050.29  223376  9001.85   794.952
    6053.42  224200  8909.78   804.938
    6056.56  225489  8897.76   822.041
    6059.85  226788  8834.79   828.26
    6063.22  227092  8772.88   828.597
    6066.68  228987  8848.03   826.05
    6070.13  230591  8997.22   820.621
    6073.75  232108  9070.47   813.307
    6077.37  234072  9320.77   849.111
    6081.15  235538  9779.14   918.031
    6084.93  237479  10225.6   986.069
    6088.8  239362  10586  1021.22
    6092.83  241268  10856.5  1008.49
    6096.86  243127  10998.1   976.882
    6100.98  245152  11087.8   960.387
    6105.18  247543  11205.4   987.008
    6109.46  249602  11251.2  1037.75
    6113.83  251728  11167  1074.6
    6118.28  254376  11168.8  1087.57
    6122.74  256363  11243.7  1089.66
    6127.36  259197  11518.7  1118.87
    6131.99  261698  11864.7  1170.19
    6136.79  264401  12179.8  1208.63
    6141.59  267024  12493.9  1237.18
    6146.48  270021  12866.1  1268.86
    6151.46  272599  13178.3  1284.65
    6156.53  275307  13459.6  1307.55
    6161.6  278035  13729.9  1315.58
    6166.84  280896  14017.3  1322.72
    6172.1  284099  14337.8  1374.98
    6177.52  287241  14821.3  1463.35
    6182.95  290258  15192.8  1530.84
    6188.47  293266  15353.4  1560.45
    6194.08  296807  15510.1  1585.17
    6199.7  300493  15730.8  1619.01
    6205.5  303889  16026.6  1662.97
    6211.3  306946  16353.4  1716.04
    6217.2  310610  16735.3  1771.24
    6223.19  314200  17178.2  1807.54
    6229.2  317869  17674.2  1839.97
    6235.38  319552  18049.3  1855.51
    6241.56  316694  18143.4  1844.17
    6247.85  328254  19053.6  1944.95
    6254.23  332652  19630.8  2048.84
    6260.71  336319  20169  2158.85
    6267.2  340191  20634.3  2227.97
    6273.79  344138  21019.7  2275.22
    6280.48  348136  21336.1  2326.58
    6287.26  352174  21699.6  2374.05
    6294.06  355660  22164.2  2437.65
    6300.95  359934  22707.7  2516.36
    6307.95  364068  23201.4  2590.19
    6315.05  368243  23774.1  2657.13
    6322.16  372697  24406.8  2713.19
    6329.38  377120  25050.6  2779.37
    6336.69  380940  25681.5  2851.66
    6344.11  385573  26332.4  2943.07
    6351.55  390038  26900.4  3035.6
    6359.09  394422  27534.4  3130.25
    6366.65  398233  28228.5  3247.01
    6374.31  402669  28979.6  3362.88
    6382.07  407951  29743.8  3459.88
    6389.95  411209  30321.1  3542.99
    6397.84  415401  30938.4  3633.22
    6405.84  419905  31587.7  3721.57
    6413.95  424506  32265.1  3816.03
    6422.08  429773  33038.6  3931.61
    6430.32  433610  33761.1  4028.3
    6438.58  437476  34597.7  4127.12
    6446.95  441919  35455.3  4248.05
    6455.43  446815  36365  4396.09
    6463.93  451382  37305.7  4547.26
    6472.55  455465  38168.5  4675.54
    6481.28  460192  39110.3  4819.93
    6490.03  465299  40082.2  4966.45
    6498.9  469681  40975.2  5093.08
    6507.79  473936  41818.2  5220.83
    6516.8  478396  42720.2  5367.69
    6525.92  483031  43689.4  5527.67
    6535.07  488177  44739.5  5692.77
    6544.25  492384  45715.7  5841.98
    6553.54  496492  46715  5988.32
    6562.95  500912  47800.4  6147.77
    6572.4  505541  48960.7  6335.33
    6581.96  509903  50112.2  6525.02
    6591.55  514184  51200.7  6709.81
    6601.26  518476  52291.2  6887.73
    6611.09  523105  53483.8  7079.76
    6620.95  527719  54707.5  7277.91
    6630.85  531854  55883.2  7473.17
    6640.87  536061  57079  7675.56
    6650.92  540557  58310.8  7886.06
    6661.1  544507  59518.7  8096.68
    6671.31  548935  60758.6  8306.41
    6681.64  552636  61965.6  8518.26
    6692.01  555119  63059.6  8707.23
    6702.51  532098  61287.7  8501.31
    6713.04  571291  66662.9  9287.52
    6723.7  572278  67704.1  9469.83
    6734.4  573939  68883.4  9689.27
    6745.14  579731  70554.7  9982.82
    6756  574514  70930  10090.5
    6766.91  589308  73740.4  10548.3
    6777.94  593815  75357.9  10833.2
    6789.02  596115  76682.4  11084.2
    6800.23  593659  77389  11256.3
    6811.48  614678  81247.7  11874.6
    6822.77  611676  81966.3  12039.9
    6834.19  614478  83479.1  12322.4
    6845.66  616878  84973.9  12603
    6857.16  620685  86691.7  12924.8
    6868.81  623852  88380.6  13244.6
    6880.5  627426  90142.6  13582.5
    6892.33  630964  91917.6  13923.6
    6904.2  634211  93691.7  14267.8
    6916.11  636980  95411.8  14615.1
    6928.18  639357  97129  14949.5
    6940.28  642405  98966.2  15322.1
    6952.43  645127  100774  15691.7
    6964.62  649364  102820  16085.5
    6976.96  651466  104582  16443.4
    6989.35  655852  106714  16868.4
    7001.88  658898  108662  17271.5
    7014.47  660793  110465  17646.7
    7027.1  662392  112242  18022.1
    7039.77  665085  114196  18419.6
    7052.6  667461  116168  18829.2
    7065.48  669933  118185  19265.9
    7078.41  672389  120227  19693.7
    7091.39  674159  122177  20124.6
    7104.53  675423  124068  20543.7
    7111.06  676519  125100  20764.5