File: data/Cr/cr2s3_100K_002.xdi
# XDI/1.0
# Column.1: energy eV
# Column.2: i0
# Column.3: itrans
# Column.4: irefer
# Beamline.name: SSRL 2-3
# Beamline.notes: vert slits = 0.6mm
# Detector.I0: N2 15cm
# Detector.I1: N2 30cm
# Detector.I2: N2 15cm
# Element.edge: K
# Element.symbol: Cr
# Mono.d_spacing: 3.13550
# Mono.name: Si(111)
# Mono.notes: unfocused, detuned 75%, clockwise at E=5990eV
# Sample.formula: Cr2S3
# Sample.name: Cr2S3
# Sample.prep: powder on tape (4 layers)
# Sample.reference: Cr foil
# Sample.temperature: 100K
# Scan.start_time: 1997-04-18 17:59:32
# ///
#    Note: mono d_spacing is nominal!
#     exafs to K16
#     396  E XMU XMUR I0
#-------------
#   energy   i0   itrans  irefer
    5759.99  221269  9149.7  1169.3
    5780.01  221035  9519.7  1231.3
    5799.97  220550  9892.7  1295.3
    5820  220021  10267.7  1362.3
    5839.97  219713  10677.7  1434.3
    5860.02  219097  11077.7  1507.3
    5879.99  218500  11482.7  1580.3
    5899.97  217463  11871.7  1654.3
    5920.02  217117  12309.7  1735.3
    5939.99  216488  12735.7  1815.3
    5959.97  216027  13164.7  1897.3
    5970.49  215488  13361.7  1935.3
    5971.53  214143  13300.7  1928.3
    5972.49  211674  13170.7  1907.3
    5973.53  214283  13362.7  1936.3
    5974.5  215666  13464.7  1949.3
    5975.46  215345  13461.7  1949.3
    5976.51  215586  13496.7  1957.3
    5977.47  215457  13503.7  1960.3
    5978.52  215713  13548.7  1967.3
    5979.48  215614  13557.7  1968.3
    5980.53  215522  13574.7  1971.3
    5981.49  215530  13589.7  1972.3
    5982.46  215562  13610.7  1974.3
    5983.51  215753  13634.7  1980.3
    5984.48  215694  13644.7  1980.3
    5985.52  214754  13600.7  1970.3
    5986.49  204481  12955.7  1873.3
    5987.46  186146  11797.7  1704.3
    5988.51  203778  12921.7  1860.3
    5989.48  210537  13317.7  1891.3
    5990.53  212778  13326.7  1808.3
    5991.5  213236  13073.7  1685.3
    5992.47  213461  12829.7  1600.3
    5993.52  213660  12735.7  1542.3
    5994.49  213855  12765.7  1514.3
    5995.47  213587  12648.7  1483.3
    5996.51  213619  12028.7  1406.3
    5997.49  213602  10604.7  1240.3
    5998.54  213745  9044.7  1039.3
    5999.51  213512  8134.7   903.301
    6000.49  213105  7698.7   823.3
    6001.46  210565  7733.7   795.3
    6002.51  210947  8179.7   814.3
    6003.49  213437  8619.7   836.301
    6004.47  213394  8693.7   828.3
    6005.52  213570  8463.7   791.3
    6006.5  213259  8166.7   750.3
    6007.47  213184  7949.7   716.301
    6008.53  213210  7770.7   687.3
    6009.5  213292  7655.7   663.3
    6010.94  213493  7480.46   635.064
    6012.82  213265  7278.51   637.181
    6014.78  213526  7355.62   675.415
    6016.81  213787  7487.78   693.765
    6018.93  214106  7483   679.233
    6021.12  214072  7489.28   669.818
    6023.39  214606  7561.6   682.518
    6025.73  214918  7714.98   700.335
    6028.16  215468  7980.41   714.27
    6030.58  215830  8186.91   722.321
    6033.16  216458  8485.45   741.49
    6035.82  217282  8862.05   775.774
    6038.56  217751  9043.7   786.176
    6041.37  218739  9071.41   783.695
    6044.26  219505  9021.17   782.331
    6047.24  220570  9018.99   790.083
    6050.29  221808  8938.86   791.952
    6053.42  222890  8862.78   804.937
    6056.56  224168  8839.76   820.04
    6059.85  225493  8778.79   828.26
    6063.22  226172  8731.88   826.597
    6066.68  227346  8783.02   823.05
    6070.13  229142  8934.22   818.621
    6073.75  230614  9009.48   810.307
    6077.37  232149  9243.78   844.111
    6081.15  234044  9720.14   915.031
    6084.93  235799  10158.5   982.068
    6088.8  237423  10498  1015.22
    6092.83  239277  10763.5  1003.49
    6096.86  241161  10911.1   972.882
    6100.98  243196  11004.8   957.387
    6105.18  245455  11098.4   984.008
    6109.46  247676  11156.2  1036.75
    6113.83  250203  11095  1070.6
    6118.28  252373  11072.8  1084.57
    6122.74  254762  11174.7  1086.66
    6127.36  257175  11427.7  1113.87
    6131.99  259805  11779.7  1165.19
    6136.79  262458  12090.8  1206.63
    6141.59  265248  12412.9  1234.18
    6146.48  267868  12763.1  1264.86
    6151.46  270684  13085.3  1281.65
    6156.53  273532  13372.6  1304.55
    6161.6  276518  13652.9  1312.58
    6166.84  279400  13940.3  1320.72
    6172.1  282607  14260.8  1372.97
    6177.52  285454  14724.3  1455.35
    6182.95  288691  15110.8  1523.84
    6188.47  291930  15277.4  1554.45
    6194.08  294961  15409.1  1576.17
    6199.7  298432  15626.8  1611.01
    6205.5  301696  15910.6  1645.97
    6211.3  305158  16247.4  1702.04
    6217.2  308639  16623.3  1755.23
    6223.19  312373  17069.3  1794.55
    6229.2  315972  17562.2  1826.97
    6235.38  317610  17934.3  1840.51
    6241.56  314527  18015.4  1835.17
    6247.85  326093  18919.5  1930.95
    6254.23  330241  19477.8  2033.84
    6260.71  334054  20015  2143.85
    6267.2  337813  20478.3  2208.97
    6273.79  341646  20863.7  2255.22
    6280.48  345602  21168.1  2304.58
    6287.26  349496  21515.6  2349.05
    6294.06  353391  22003.1  2409.65
    6300.95  357671  22547.8  2492.36
    6307.95  361470  23026.4  2558.18
    6315.05  366053  23629.1  2630.13
    6322.16  369901  24216.8  2688.19
    6329.38  374103  24836.7  2750.37
    6336.69  378360  25496.5  2825.66
    6344.11  382936  26130.4  2915.07
    6351.55  387156  26691.4  3002.6
    6359.09  391731  27328.4  3103.24
    6366.65  395539  28013.5  3220.01
    6374.31  400280  28788.6  3332.88
    6382.07  404801  29499.8  3423.88
    6389.95  409053  30147.1  3516.99
    6397.84  413437  30764.4  3609.22
    6405.84  417936  31421.7  3697.57
    6413.95  422543  32092.1  3790.03
    6422.08  426935  32803.6  3898.61
    6430.32  431581  33590.1  4005.31
    6438.58  435974  34461.7  4114.12
    6446.95  440803  35356.3  4236.05
    6455.43  445412  36237  4381.09
    6463.93  449791  37151.7  4525.26
    6472.55  454351  38049.5  4657.54
    6481.28  459272  39007.3  4801.93
    6490.03  463486  39904.2  4938.45
    6498.9  468279  40828.2  5074.08
    6507.79  472614  41679.2  5206.83
    6516.8  477397  42621.2  5357.69
    6525.92  481663  43552.3  5511.67
    6535.07  486322  44547.5  5665.77
    6544.25  490267  45511.8  5814.98
    6553.54  493880  46462  5955.32
    6562.95  498359  47552.4  6125.77
    6572.4  502551  48663.8  6300.33
    6581.96  507182  49832.2  6499.01
    6591.55  511278  50900.7  6675.81
    6601.26  516143  52059.2  6861.72
    6611.09  520306  53198.9  7046.76
    6620.95  524947  54412.5  7240.91
    6630.85  529547  55633.2  7437.18
    6640.87  533320  56778  7634.57
    6650.92  537525  57965.8  7842.06
    6661.1  542764  59318.7  8069.68
    6671.31  546270  60463.6  8269.4
    6681.64  550492  61711.6  8485.26
    6692.01  553305  62848.6  8678.22
    6702.51  530963  61149.7  8484.31
    6713.04  570097  66503.9  9265.51
    6723.7  570691  67475.1  9447.83
    6734.4  572282  68658.3  9656.26
    6745.14  577544  70269.7  9940.82
    6756  574222  70864  10077.5
    6766.91  586971  73431.4  10504.3
    6777.94  592519  75179.9  10809.2
    6789.02  595199  76529.4  11062.2
    6800.23  592533  77233  11233.3
    6811.48  613490  81070.6  11849.6
    6822.77  609936  81697.4  12000
    6834.19  612214  83152.1  12273.4
    6845.66  615452  84745.8  12571
    6857.16  618646  86369.8  12880.8
    6868.81  622306  88122.6  13212.6
    6880.5  625532  89836.6  13537.5
    6892.33  628537  91556.6  13871.6
    6904.2  631454  93251.7  14208.8
    6916.11  634609  95047.8  14564.1
    6928.18  637136  96770  14908.5
    6940.28  640486  98644.3  15281.1
    6952.43  643754  100529  15652.7
    6964.62  646678  102348  16014.5
    6976.96  649214  104192  16390.4
    6989.35  652348  106131  16782.4
    7001.88  654995  108023  17179.5
    7014.47  657472  109890  17561.7
    7027.1  659738  111767  17947.1
    7039.77  661836  113614  18333.6
    7052.6  664548  115648  18756.2
    7065.48  667107  117656  19182.8
    7078.41  669341  119669  19611.7
    7091.39  670097  121418  20004.6
    7104.53  671984  123383  20440.7
    7111.06  672815  124356  20647.5