File: data/Cr/cr2s3_15K_001.xdi
# XDI/1.0
# Column.1: energy eV
# Column.2: i0
# Column.3: itrans
# Column.4: irefer
# Beamline.name: SSRL 2-3
# Beamline.notes: vert slits = 0.6mm
# Detector.I0: N2 15cm
# Detector.I1: N2 30cm
# Detector.I2: N2 15cm
# Element.edge: K
# Element.symbol: Cr
# Mono.d_spacing: 3.13550
# Mono.name: Si(111)
# Mono.notes: unfocused, detuned 75%, clockwise at E=5990eV
# Sample.formula: Cr2S3
# Sample.name: Cr2S3
# Sample.prep: powder on tape (4 layers)
# Sample.reference: Cr foil
# Sample.temperature: 15K
# Scan.start_time: 1997-04-18 16:16:50
# ///
#    Note: mono d_spacing is nominal!
#     exafs to K16
#     396  E XMU XMUR I0
#-------------
#   energy   i0   itrans  irefer
    5759.99  234427  9345.7  1195.3
    5780.01  234036  9719.7  1261.3
    5799.97  233411  10094.7  1326.3
    5820  233029  10497.7  1396.3
    5839.97  232235  10889.7  1466.3
    5860.02  231753  11309.7  1539.3
    5879.99  231069  11725.7  1616.3
    5899.97  230725  12171.7  1697.3
    5920.02  230266  12617.7  1777.3
    5939.99  229278  13037.7  1857.3
    5959.97  228698  13471.7  1938.3
    5970.49  227952  13675.7  1976.3
    5971.53  226985  13645.7  1976.3
    5972.49  224305  13500.7  1956.3
    5973.53  226600  13659.7  1979.3
    5974.5  228245  13784.7  1998.3
    5975.46  228416  13809.7  2002.3
    5976.51  228472  13835.7  2007.3
    5977.47  228438  13855.7  2010.3
    5978.52  228393  13880.7  2015.3
    5979.48  228366  13900.7  2015.3
    5980.53  228172  13905.7  2018.3
    5981.49  228301  13929.7  2023.3
    5982.46  228276  13949.7  2024.3
    5983.51  228585  13979.7  2028.3
    5984.48  228508  13990.7  2030.3
    5985.52  227745  13960.7  2024.3
    5986.49  218937  13428.7  1944.3
    5987.46  196760  12076.7  1747.3
    5988.51  213964  13125.7  1889.3
    5989.48  222158  13606.7  1937.3
    5990.53  224667  13639.7  1859.3
    5991.5  225240  13401.7  1737.3
    5992.47  225736  13155.7  1647.3
    5993.52  225746  13026.7  1585.3
    5994.49  225976  13052.7  1554.3
    5995.47  225864  12976.7  1523.3
    5996.51  225934  12437.7  1455.3
    5997.49  225790  11052.7  1292.3
    5998.54  225697  9372.7  1083.3
    5999.51  225688  8390.7   937.3
    6000.49  225163  7874.7   848.3
    6001.46  222876  7866.7   814.3
    6002.51  222538  8280.7   829.3
    6003.49  225337  8767.7   858.3
    6004.47  225486  8904.7   853.3
    6005.52  225496  8689.7   817.3
    6006.5  225212  8381.7   776.3
    6007.47  226173  8185.7   745.3
    6008.53  224830  7948.7   710.3
    6009.5  224764  7813.7   685.3
    6010.94  224799  7632.46   656.064
    6012.82  224482  7411.51   652.181
    6014.78  224985  7477.62   687.415
    6016.81  225083  7617.78   709.765
    6018.93  225322  7616   696.233
    6021.12  225421  7619.27   683.817
    6023.39  226274  7694.6   696.518
    6025.73  226861  7851.98   715.335
    6028.16  227191  8118.41   727.269
    6030.58  227892  8345.91   740.321
    6033.16  228365  8630.45   760.49
    6035.82  229081  9016.05   792.774
    6038.56  230093  9237.7   808.176
    6041.37  230717  9260.41   804.695
    6044.26  231776  9218.17   807.331
    6047.24  232902  9219.99   815.083
    6050.29  233553  9112.85   814.952
    6053.42  234869  9037.78   825.938
    6056.56  236414  9028.76   842.041
    6059.85  237330  8944.79   846.26
    6063.22  238225  8896.88   847.597
    6066.68  240185  8976.02   844.049
    6070.13  241503  9108.22   838.621
    6073.75  242549  9161.48   829.307
    6077.37  244235  9381.77   864.111
    6081.15  245811  9850.14   934.031
    6084.93  247737  10305.6  1003.07
    6088.8  249503  10670  1040.22
    6092.83  251216  10943.5  1028.49
    6096.86  252674  11075.1   993.882
    6100.98  254415  11151.8   976.388
    6105.18  256559  11245.4  1002.01
    6109.46  258103  11273.2  1047.75
    6113.83  259911  11165  1082.6
    6118.28  262636  11142.8  1095.57
    6122.74  265406  11241.7  1100.66
    6127.36  268046  11510.7  1127.87
    6131.99  270726  11879.7  1182.19
    6136.79  273718  12222.8  1224.63
    6141.59  276878  12548.9  1254.19
    6146.48  280082  12929.1  1284.86
    6151.46  282995  13245.3  1303.65
    6156.53  286775  13574.6  1331.55
    6161.6  289125  13818.9  1334.58
    6166.84  292510  14123.3  1342.72
    6172.1  295798  14437.8  1393.97
    6177.52  299305  14955.3  1483.35
    6182.95  301754  15329.8  1549.84
    6188.47  304482  15455.4  1579.45
    6194.08  307088  15546.1  1595.17
    6199.7  312945  15872.8  1640.01
    6205.5  315522  16119.6  1676.97
    6211.3  315857  16300.4  1716.04
    6217.2  319489  16676.3  1769.24
    6223.19  322775  17085.2  1802.54
    6229.2  326013  17555.2  1833.97
    6235.38  326922  17894.3  1840.51
    6241.56  320020  17771.4  1810.17
    6247.85  332195  18667.5  1906.95
    6254.23  333413  19063.7  1992.84
    6260.71  338132  19663  2108.85
    6267.2  341799  20119.3  2177.97
    6273.79  344433  20425.7  2219.22
    6280.48  347929  20682.1  2259.58
    6287.26  350204  20883.6  2288.05
    6294.06  355126  21440.1  2355.65
    6300.95  359598  22002.8  2442.36
    6307.95  369249  22826.4  2548.18
    6315.05  376149  23553.1  2635.13
    6322.16  381017  24220.8  2697.19
    6329.38  386786  24939.6  2771.36
    6336.69  393264  25735.5  2864.66
    6344.11  399705  26496.4  2965.07
    6351.55  406109  27172.4  3068.6
    6359.09  410708  27790.4  3168.24
    6366.65  415147  28542.5  3289.01
    6374.31  419653  29325.7  3411.88
    6382.07  423931  30034.8  3503.88
    6389.95  428648  30714.1  3600.99
    6397.84  433373  31352.4  3691.22
    6405.84  437644  31989.7  3778.57
    6413.95  442132  32646.1  3874.03
    6422.08  447287  33399.6  3985.61
    6430.32  452162  34176.1  4094.3
    6438.58  456712  35087.7  4202.12
    6446.95  461507  35983.3  4327.05
    6455.43  466404  36895  4471.1
    6463.93  471101  37848.7  4619.26
    6472.55  475161  38706.5  4748.54
    6481.28  480164  39683.3  4893.93
    6490.03  485238  40654.3  5047.45
    6498.9  490251  41594.2  5184.08
    6507.79  494319  42409.2  5307.83
    6516.8  498379  43262.3  5453.69
    6525.92  500025  43983.4  5581.68
    6535.07  501198  44656.5  5695.77
    6544.25  504147  45540.8  5832.98
    6553.54  507946  46492  5975.32
    6562.95  511898  47537.3  6136.76
    6572.4  515276  48562.8  6301.33
    6581.96  520393  49796.2  6500.02
    6591.55  525233  50926.7  6689.81
    6601.26  528932  51928.2  6861.73
    6611.09  533421  53106.9  7050.76
    6620.95  537586  54253.5  7241.91
    6630.85  541319  55400.2  7423.18
    6640.87  544785  56488  7613.56
    6650.92  549328  57714.8  7827.06
    6661.1  553686  58972.7  8040.68
    6671.31  558087  60220.6  8248.41
    6681.64  561932  61419.6  8456.26
    6692.01  564474  62491.6  8648.23
    6702.51  543031  60974.7  8473.31
    6713.04  580246  65996.8  9213.51
    6723.7  582180  67135  9410.83
    6734.4  583520  68261.3  9610.26
    6745.14  588865  69892.7  9896.82
    6756  578462  69668  9921.48
    6766.91  598315  73036.4  10450.3
    6777.94  604744  74874.9  10767.2
    6789.02  609145  76450.5  11064.2
    6800.23  607351  77260  11244.3
    6811.48  630169  81270.6  11893.6
    6822.77  619560  81024.3  11926.9
    6834.19  619465  82109.1  12143.4
    6845.66  622541  83695.8  12441
    6857.16  625802  85322.8  12743.8
    6868.81  629415  87058.7  13063.6
    6880.5  632250  88701.6  13383.5
    6892.33  636505  90560.6  13729.6
    6904.2  639063  92220.7  14065.8
    6916.11  642152  93980.9  14406.1
    6928.18  643584  95526  14726.5
    6940.28  645707  97198.2  15072.1
    6952.43  647245  98777.6  15398.7
    6964.62  651655  100829  15795.5
    6976.96  654230  102658  16159.4
    6989.35  656649  104454  16524.4
    7001.88  660703  106548  16936.5
    7014.47  659824  107843  17235.7
    7027.1  661201  109548  17594.1
    7039.77  671300  112679  18192.6
    7052.6  679775  115653  18773.2
    7065.48  683629  117896  19229.9
    7078.41  685975  119943  19651.7
    7091.39  688490  122029  20107.6
    7104.53  689356  123864  20514.7
    7111.06  689525  124740  20712.5