File: data/Cr/cr2s3_rt_002.xdi
# XDI/1.0
# Column.1: energy eV
# Column.2: i0
# Column.3: itrans
# Beamline.name: SSRL 4-1
# Detector.I0: N2 15cm
# Detector.I1: N2 30cm
# Detector.I2: N2 15cm
# Element.edge: K
# Element.symbol: Cr
# Mono.d_spacing: 3.13550
# Mono.name: Si(111)
# Mono.notes: unfocused, detuned 30%,counter clockwise at E=6200eV
# Sample.formula: Cr2S3
# Sample.name: Cr2S3 chromium sesquisulfide
# Sample.prep: powder, mixed 1:50 with B(OH)3 by wt
# Sample.reference: none
# Sample.temperature: room temperature
# Scan.start_time: 1997-01-20 15:45:55
# ///
#    Note: mono d_spacing is nominal!
#     exafs to K15
#     381  E XMU I0
#-------------
#   energy   i0   itrans
    5789  250852  145240
    5810.25  251743  155092
    5831.5  252930  165793
    5852.75  253224  176519
    5874  253977  188062
    5895.25  254604  200185
    5916.5  255548  213197
    5937.75  255648  226105
    5959  256204  239909
    5960.52  256402  241095
    5962.03  256301  241892
    5963.54  256450  243068
    5965.06  256430  244000
    5966.58  256555  245106
    5968.09  256422  245974
    5969.6  256507  246949
    5971.12  256472  247894
    5972.64  254982  247327
    5974.15  254100  247643
    5975.67  254193  248832
    5977.18  254901  250034
    5978.7  256223  252356
    5980.21  256513  253530
    5981.73  256792  254708
    5983.24  255904  254690
    5984.76  243286  243151
    5986.27  242184  242049
    5987.79  253028  252891
    5989.3  255160  251453
    5990.82  255684  247608
    5992.33  256182  247181
    5993.85  254979  242307
    5995.36  251982  219048
    5996.88  252310  193159
    5998.39  255517  183653
    5999.91  255821  186415
    6001.42  256451  193418
    6002.94  255857  193327
    6004.45  256250  188950
    6005.97  256339  185334
    6007.49  256424  183088
    6009  256463  181004
    6009.04  256278  180769
    6009.15  256196  180563
    6009.35  256484  180553
    6009.62  256907  180497
    6009.97  256794  180133
    6010.39  257204  180066
    6010.89  257525  180212
    6011.47  258224  180859
    6012.13  258600  181648
    6012.86  258861  182529
    6013.67  259497  183778
    6014.56  259891  184850
    6015.53  260366  185643
    6016.57  261142  186459
    6017.69  261734  187207
    6018.88  262300  188246
    6020.16  263156  189682
    6021.51  264078  191361
    6022.94  264957  193413
    6024.44  265798  196050
    6026.03  266588  199338
    6027.69  267567  202699
    6029.43  268822  206417
    6031.24  269785  210892
    6033.14  271313  216089
    6035.1  272262  219839
    6037.15  273660  222480
    6039.27  274873  224006
    6041.47  275804  224705
    6043.75  277548  226378
    6046.11  278755  227341
    6048.54  280706  228148
    6051.05  281966  228716
    6053.64  283529  229961
    6056.3  284754  230600
    6059.04  285799  231036
    6061.86  287388  232846
    6064.76  288768  235470
    6067.73  290475  239084
    6070.78  292459  242756
    6073.91  294517  247462
    6077.11  296637  254527
    6080.4  298152  261894
    6083.76  300260  268917
    6087.19  302175  275027
    6090.7  304662  280721
    6094.3  306782  285043
    6097.97  308717  288732
    6101.71  310868  292542
    6105.53  313296  296289
    6109.43  315213  298446
    6113.41  317816  301142
    6117.46  320464  304852
    6121.6  322380  309144
    6125.81  324919  315547
    6130.09  327296  322604
    6134.45  329842  329666
    6138.89  332841  337372
    6143.41  335449  345508
    6148.01  338152  353496
    6152.68  340522  360961
    6157.43  343732  369195
    6162.26  346364  376718
    6167.16  349556  385038
    6172.14  352189  393650
    6177.2  355170  403497
    6182.33  357932  411655
    6187.55  360533  418234
    6192.84  363825  425698
    6198.2  366763  433516
    6203.65  369349  441647
    6209.17  372819  451635
    6214.77  376222  462261
    6220.45  379267  473242
    6226.2  382429  485094
    6232.03  386364  498201
    6237.94  387163  507345
    6243.92  384359  511655
    6249.98  395698  535390
    6256.12  399089  549079
    6262.34  402460  562199
    6268.63  405727  574706
    6275.01  409198  587126
    6281.45  413027  600020
    6287.98  416676  613846
    6294.58  420447  628654
    6301.26  423974  643340
    6308.02  427925  659364
    6314.85  431372  675670
    6321.77  434485  691978
    6328.76  438922  710969
    6335.82  442352  728876
    6342.97  445713  746401
    6350.19  449804  765654
    6357.48  453512  785088
    6364.86  457357  805612
    6372.31  461634  827109
    6379.84  465498  847796
    6387.45  469023  868067
    6395.13  472694  888665
    6402.89  477397  911975
    6410.73  481272  934435
    6418.65  485422  958391
    6426.64  489221  982834
    6434.71  492959  1.00815e+06
    6442.86  496901  1.0345e+06
    6451.08  501621  1.06333e+06
    6459.38  505622  1.09138e+06
    6467.76  510435  1.12169e+06
    6476.22  514008  1.14986e+06
    6484.75  517212  1.17785e+06
    6493.36  521841  1.20945e+06
    6502.05  525841  1.2401e+06
    6510.82  529121  1.26983e+06
    6519.66  533808  1.30395e+06
    6528.58  537884  1.33737e+06
    6537.58  542631  1.37346e+06
    6546.65  545523  1.40595e+06
    6555.8  550763  1.44564e+06
    6565.03  554541  1.48267e+06
    6574.33  558652  1.52157e+06
    6583.72  563426  1.56308e+06
    6593.18  567269  1.60303e+06
    6602.72  571899  1.64624e+06
    6612.33  575573  1.6879e+06
    6622.02  579801  1.7321e+06
    6631.79  583437  1.77533e+06
    6641.64  588354  1.82335e+06
    6651.56  592485  1.87006e+06
    6661.56  596153  1.91633e+06
    6671.64  599445  1.96222e+06
    6681.8  603256  2.01161e+06
    6692.03  606676  2.06078e+06
    6702.34  608438  2.10535e+06
    6712.73  590845  2.08114e+06
    6723.19  627061  2.24971e+06
    6733.73  626588  2.29343e+06
    6744.35  631589  2.35583e+06
    6755.04  641891  2.44033e+06
    6765.82  633808  2.45248e+06
    6776.67  641332  2.53266e+06
    6787.6  619951  2.4948e+06
    6798.6  661415  2.71248e+06
    6809.68  659781  2.75684e+06
    6820.84  662691  2.82185e+06
    6832.08  665137  2.88669e+06
    6843.39  668694  2.9576e+06
    6854.78  671522  3.02687e+06
    6866.25  675493  3.10356e+06