File: data/Cr/cr2s3_rt_001.xdi
# XDI/1.0
# Column.1: energy eV
# Column.2: i0
# Column.3: itrans
# Beamline.name: SSRL 4-1
# Detector.I0: N2 15cm
# Detector.I1: N2 30cm
# Detector.I2: N2 15cm
# Element.edge: K
# Element.symbol: Cr
# Mono.d_spacing: 3.13550
# Mono.name: Si(111)
# Mono.notes: unfocused, detuned 30%,counter clockwise at E=6200eV
# Sample.formula: Cr2S3
# Sample.name: Cr2S3 chromium sesquisulfide
# Sample.prep: powder, mixed 1:50 with B(OH)3 by wt
# Sample.reference: none
# Sample.temperature: room temperature
# Scan.start_time: 1997-01-20 15:45:55
# ///
#    Note: mono d_spacing is nominal!
#     exafs to K15
#     381  E XMU I0
#-------------
#   energy   i0   itrans
    5789  249607  144543
    5810.25  250964  154675
    5831.5  251898  165174
    5852.75  253033  176427
    5874  253643  187868
    5895.25  254202  199973
    5916.5  254351  212238
    5937.75  255217  225824
    5959  255519  239378
    5960.52  255140  239937
    5962.03  255602  241376
    5963.54  255983  242710
    5965.06  255619  243306
    5966.58  255631  244320
    5968.09  255483  245105
    5969.6  255810  246433
    5971.12  255973  247524
    5972.64  254500  246972
    5974.15  253174  246888
    5975.67  253620  248372
    5977.18  254183  249436
    5978.7  255342  251639
    5980.21  255861  253050
    5981.73  255902  253982
    5983.24  254991  253885
    5984.76  241041  240905
    5986.27  242634  242499
    5987.79  252643  252506
    5989.3  254623  250768
    5990.82  255198  247038
    5992.33  255786  246873
    5993.85  254008  240900
    5995.36  250911  216586
    5996.88  251631  191593
    5998.39  254691  182923
    5999.91  255170  186276
    6001.42  255210  192721
    6002.94  255442  192830
    6004.45  255534  188203
    6005.97  255414  184564
    6007.49  255332  182191
    6009  255593  180277
    6009.04  255627  180204
    6009.15  255442  179971
    6009.35  255792  179980
    6009.62  256028  179833
    6009.97  256190  179643
    6010.39  256352  179503
    6010.89  256669  179628
    6011.47  256762  179870
    6012.13  257507  180941
    6012.86  258129  182112
    6013.67  258525  183242
    6014.56  259130  184363
    6015.53  259712  185266
    6016.57  260233  185869
    6017.69  261176  186864
    6018.88  261631  187868
    6020.16  262480  189311
    6021.51  262978  190602
    6022.94  264164  192989
    6024.44  264864  195502
    6026.03  266123  199099
    6027.69  267183  202540
    6029.43  268140  206073
    6031.24  269235  210658
    6033.14  270247  215399
    6035.1  271492  219327
    6037.15  272858  221935
    6039.27  274309  223617
    6041.47  275391  224430
    6043.75  277020  226041
    6046.11  278212  226890
    6048.54  279656  227278
    6051.05  281468  228325
    6053.64  282556  229220
    6056.3  284059  230059
    6059.04  285315  230659
    6061.86  286269  232019
    6064.76  288233  235140
    6067.73  290105  238902
    6070.78  291816  242260
    6073.91  293648  246848
    6077.11  295449  253697
    6080.4  297182  261174
    6083.76  299659  268512
    6087.19  301693  274724
    6090.7  303851  280098
    6094.3  305771  284169
    6097.97  307856  287964
    6101.71  310374  292156
    6105.53  312645  295730
    6109.43  314526  297878
    6113.41  317121  300616
    6117.46  319713  304305
    6121.6  321776  308715
    6125.81  324827  315633
    6130.09  326776  322247
    6134.45  329878  329737
    6138.89  332165  336861
    6143.41  334957  345178
    6148.01  337342  352854
    6152.68  340179  360709
    6157.43  342595  368102
    6162.26  345634  376118
    6167.16  348212  383769
    6172.14  351781  393396
    6177.2  354240  402688
    6182.33  357430  411239
    6187.55  360363  418245
    6192.84  362975  424885
    6198.2  366435  433295
    6203.65  369279  441766
    6209.17  372770  451850
    6214.77  376117  462310
    6220.45  379493  473671
    6226.2  382199  485029
    6232.03  386010  497964
    6237.94  386734  507006
    6243.92  384523  512033
    6249.98  395802  535824
    6256.12  398944  549086
    6262.34  402610  562602
    6268.63  406246  575815
    6275.01  409472  587842
    6281.45  413305  600717
    6287.98  416809  614391
    6294.58  420263  628746
    6301.26  423791  643483
    6308.02  427709  659476
    6314.85  431400  676105
    6321.77  435288  693673
    6328.76  439581  712446
    6335.82  443054  730332
    6342.97  446238  747680
    6350.19  449881  766188
    6357.48  454232  786590
    6364.86  458461  807863
    6372.31  462839  829536
    6379.84  466313  849566
    6387.45  469994  870166
    6395.13  474520  892469
    6402.89  477973  913497
    6410.73  481700  935662
    6418.65  485967  959889
    6426.64  490266  985258
    6434.71  493461  1.00955e+06
    6442.86  497338  1.03583e+06
    6451.08  501926  1.06437e+06
    6459.38  505669  1.09195e+06
    6467.76  509962  1.12107e+06
    6476.22  514425  1.1513e+06
    6484.75  518336  1.18087e+06
    6493.36  522056  1.21028e+06
    6502.05  526340  1.24168e+06
    6510.82  531023  1.27483e+06
    6519.66  534584  1.30629e+06
    6528.58  538539  1.3394e+06
    6537.58  543163  1.37533e+06
    6546.65  546640  1.40923e+06
    6555.8  550381  1.44517e+06
    6565.03  554613  1.48343e+06
    6574.33  558585  1.52183e+06
    6583.72  562987  1.5626e+06
    6593.18  566521  1.60156e+06
    6602.72  571056  1.6445e+06
    6612.33  575348  1.68784e+06
    6622.02  579428  1.73154e+06
    6631.79  583825  1.77732e+06
    6641.64  586983  1.81976e+06
    6651.56  590877  1.86562e+06
    6661.56  594123  1.91059e+06
    6671.64  598535  1.96017e+06
    6681.8  602042  2.00816e+06
    6692.03  605722  2.05828e+06
    6702.34  606705  2.10009e+06
    6712.73  590065  2.07934e+06
    6723.19  625120  2.24357e+06
    6733.73  624797  2.28762e+06
    6744.35  630484  2.35244e+06
    6755.04  639818  2.43298e+06
    6765.82  631232  2.44322e+06
    6776.67  638080  2.52067e+06
    6787.6  618238  2.4886e+06
    6798.6  658487  2.70134e+06
    6809.68  656992  2.74621e+06
    6820.84  659531  2.80932e+06
    6832.08  662228  2.87488e+06
    6843.39  666424  2.94838e+06
    6854.78  669304  3.01799e+06
    6866.25  672589  3.091e+06