File: data/Cr/cr2s3_15K_002.xdi
# XDI/1.0
# Column.1: energy eV
# Column.2: i0
# Column.3: itrans
# Column.4: irefer
# Beamline.name: SSRL 2-3
# Beamline.notes: vert slits = 0.6mm
# Detector.I0: N2 15cm
# Detector.I1: N2 30cm
# Detector.I2: N2 15cm
# Element.edge: K
# Element.symbol: Cr
# Mono.d_spacing: 3.13550
# Mono.name: Si(111)
# Mono.notes: unfocused, detuned 75%, clockwise at E=5990eV
# Sample.formula: Cr2S3
# Sample.name: Cr2S3
# Sample.prep: powder on tape (4 layers)
# Sample.reference: Cr foil
# Sample.temperature: 15K
# Scan.start_time: 1997-04-18 16:16:50
# ///
#    Note: mono d_spacing is nominal!
#     exafs to K16
#     396  E XMU XMUR I0
#-------------
#   energy   i0   itrans  irefer
    5759.99  228550  9104.7  1166.3
    5780.01  228686  9495.7  1231.3
    5799.97  228189  9863.7  1295.3
    5820  227758  10254.7  1361.3
    5839.97  227146  10649.7  1432.3
    5860.02  226377  11037.7  1504.3
    5879.99  225599  11439.7  1576.3
    5899.97  225187  11862.7  1652.3
    5920.02  224301  12286.7  1733.3
    5939.99  223219  12685.7  1809.3
    5959.97  222078  13078.7  1884.3
    5970.49  220101  13203.7  1909.3
    5971.53  216604  13013.7  1885.3
    5972.49  214422  12901.7  1867.3
    5973.53  217199  13086.7  1895.3
    5974.5  218842  13207.7  1914.3
    5975.46  219312  13253.7  1920.3
    5976.51  219241  13270.7  1925.3
    5977.47  219514  13309.7  1930.3
    5978.52  219480  13325.7  1934.3
    5979.48  219689  13362.7  1939.3
    5980.53  219755  13383.7  1940.3
    5981.49  219808  13404.7  1944.3
    5982.46  219865  13425.7  1947.3
    5983.51  219942  13447.7  1952.3
    5984.48  219924  13463.7  1954.3
    5985.52  218996  13415.7  1945.3
    5986.49  210280  12892.7  1867.3
    5987.46  189836  11641.7  1685.3
    5988.51  206303  12655.7  1823.3
    5989.48  214154  13113.7  1869.3
    5990.53  216620  13143.7  1795.3
    5991.5  217058  12910.7  1673.3
    5992.47  217591  12675.7  1584.3
    5993.52  217494  12550.7  1523.3
    5994.49  217620  12569.7  1492.3
    5995.47  217501  12485.7  1466.3
    5996.51  217422  11945.7  1397.3
    5997.49  217556  10617.7  1241.3
    5998.54  217490  9009.7  1038.3
    5999.51  217454  8065.7   899.3
    6000.49  216825  7579.7   813.3
    6001.46  214588  7582.7   784.3
    6002.51  214748  8002.7   801.3
    6003.49  216986  8454.7   826.3
    6004.47  217227  8573.7   819.3
    6005.52  216910  8350.7   783.3
    6006.5  216874  8066.7   744.3
    6007.47  216842  7841.7   711.3
    6008.53  216799  7656.7   681.3
    6009.5  217172  7547.7   659.3
    6010.94  217216  7371.46   631.064
    6012.82  216983  7162.51   630.181
    6014.78  216845  7210.62   664.415
    6016.81  216811  7333.78   681.765
    6018.93  217012  7333   668.233
    6021.12  217977  7365.27   662.817
    6023.39  216043  7348.6   663.518
    6025.73  216735  7501.98   684.335
    6028.16  217348  7765.42   696.27
    6030.58  218786  8010.9   710.321
    6033.16  219901  8305.45   731.49
    6035.82  221790  8729.05   765.774
    6038.56  223087  8957.7   783.176
    6041.37  224676  9015.41   780.695
    6044.26  226253  8992.17   785.331
    6047.24  227682  9012.99   793.083
    6050.29  229140  8941.85   795.952
    6053.42  230650  8877.78   806.938
    6056.56  231737  8847.76   822.042
    6059.85  232908  8771.79   827.26
    6063.22  233754  8729.88   828.597
    6066.68  234980  8779.02   823.049
    6070.13  236758  8932.22   820.621
    6073.75  238574  9009.48   812.307
    6077.37  240234  9225.78   845.111
    6081.15  242144  9703.14   917.031
    6084.93  243873  10142.6   986.068
    6088.8  245742  10509  1021.22
    6092.83  247613  10781.5  1009.49
    6096.86  249581  10939.1   980.882
    6100.98  251551  11030.8   962.387
    6105.18  254029  11129.4   988.008
    6109.46  256128  11178.2  1039.75
    6113.83  258383  11097  1071.6
    6118.28  260782  11059.8  1083.57
    6122.74  263182  11139.7  1087.66
    6127.36  265905  11415.7  1115.87
    6131.99  268452  11782.7  1166.19
    6136.79  270877  12095.8  1208.63
    6141.59  273776  12409.9  1236.19
    6146.48  276429  12757.1  1266.86
    6151.46  279390  13075.3  1283.65
    6156.53  281915  13341.6  1304.56
    6161.6  284934  13614.9  1314.58
    6166.84  288008  13905.3  1319.72
    6172.1  291397  14213.8  1366.97
    6177.52  294540  14715.3  1458.35
    6182.95  297374  15101.8  1527.84
    6188.47  300664  15261.4  1557.45
    6194.08  303921  15381.1  1580.17
    6199.7  307288  15582.8  1609.01
    6205.5  310942  15885.6  1652.97
    6211.3  314350  16217.4  1709.04
    6217.2  317957  16590.3  1763.24
    6223.19  321429  17007.2  1794.54
    6229.2  325012  17490.2  1826.97
    6235.38  327150  17901.3  1846.51
    6241.56  324092  17990.4  1837.17
    6247.85  335912  18885.5  1932.95
    6254.23  340165  19440.7  2032.84
    6260.71  344188  20018  2146.85
    6267.2  348143  20496.3  2213.97
    6273.79  351741  20852.7  2266.22
    6280.48  356157  21170.1  2314.58
    6287.26  360309  21489.6  2356.05
    6294.06  364255  21983.2  2422.65
    6300.95  368994  22567.7  2509.36
    6307.95  373231  23062.4  2578.19
    6315.05  377471  23634.1  2647.13
    6322.16  382200  24284.8  2708.19
    6329.38  386530  24919.7  2773.37
    6336.69  390818  25564.5  2847.66
    6344.11  395233  26194.4  2934.07
    6351.55  399426  26718.4  3019.6
    6359.09  403317  27280.4  3107.25
    6366.65  408627  28087.5  3237.01
    6374.31  412954  28847.7  3351.88
    6382.07  417454  29564.8  3444.88
    6389.95  421890  30215.1  3533.99
    6397.84  426509  30854.4  3627.22
    6405.84  431315  31522.7  3717.57
    6413.95  435633  32151.1  3809.03
    6422.08  440229  32855.6  3913.61
    6430.32  444689  33604.1  4020.3
    6438.58  449212  34486.7  4126.12
    6446.95  453848  35366.3  4247.05
    6455.43  458769  36276  4392.09
    6463.93  463296  37212.7  4540.26
    6472.55  467857  38105.5  4677.54
    6481.28  472544  39047.3  4819.94
    6490.03  477380  39992.3  4966.45
    6498.9  481938  40892.2  5096.08
    6507.79  486582  41758.2  5228.83
    6516.8  491257  42646.3  5378.69
    6525.92  495805  43614.4  5539.67
    6535.07  500466  44596.5  5694.77
    6544.25  504409  45570.8  5842.99
    6553.54  508123  46520.1  5982.32
    6562.95  513109  47637.4  6150.77
    6572.4  517921  48827.8  6340.33
    6581.96  522499  50002.2  6526.01
    6591.55  526891  51090.7  6713.82
    6601.26  531094  52139.3  6886.73
    6611.09  535637  53326.8  7073.76
    6620.95  539845  54486.5  7263.91
    6630.85  544554  55724.2  7467.18
    6640.87  548917  56923  7672.56
    6650.92  552977  58097.8  7876.06
    6661.1  557593  59377.7  8092.67
    6671.31  561733  60607.6  8305.41
    6681.64  565822  61840.6  8506.25
    6692.01  568202  62901.7  8683.23
    6702.51  545944  61277.7  8504.31
    6713.04  584661  66504.8  9268.51
    6723.7  585928  67558.1  9462.83
    6734.4  586962  68659.3  9663.26
    6745.14  592156  70280.7  9953.82
    6756  583805  70302  10010.5
    6766.91  602138  73495.4  10524.3
    6777.94  607643  75222.9  10826.2
    6789.02  609257  76466.4  11060.2
    6800.23  606519  77142  11220.3
    6811.48  627889  80964.7  11843.6
    6822.77  624919  81706.4  12011.9
    6834.19  627371  83167.1  12279.4
    6845.66  630843  84796.9  12594
    6857.16  634112  86468.8  12903.8
    6868.81  637091  88124.6  13224.6
    6880.5  641170  89947.6  13579.5
    6892.33  644292  91669.7  13913.6
    6904.2  647400  93426.7  14252.8
    6916.11  650220  95164.8  14591.1
    6928.18  651638  96740  14917.5
    6940.28  654030  98454.2  15265.1
    6952.43  656350  100164  15620.7
    6964.62  659886  102120  16004.5
    6976.96  662163  103888  16366.4
    6989.35  665056  105800  16761.4
    7001.88  667644  107673  17148.5
    7014.47  670408  109596  17537.7
    7027.1  672761  111457  17912.1
    7039.77  675279  113395  18316.6
    7052.6  677042  115228  18707.2
    7065.48  678732  117101  19114.9
    7078.41  681579  119215  19562.7
    7091.39  683521  121191  19986.6
    7104.53  684591  123043  20397.7
    7111.06  685057  123952  20605.5