File: data/Cr/cr2s3_rt_003.xdi
# XDI/1.0
# Column.1: energy eV
# Column.2: i0
# Column.3: itrans
# Beamline.name: SSRL 4-1
# Detector.I0: N2 15cm
# Detector.I1: N2 30cm
# Detector.I2: N2 15cm
# Element.edge: K
# Element.symbol: Cr
# Mono.d_spacing: 3.13550
# Mono.name: Si(111)
# Mono.notes: unfocused, detuned 30%,counter clockwise at E=6200eV
# Sample.formula: Cr2S3
# Sample.name: Cr2S3 chromium sesquisulfide
# Sample.prep: powder, mixed 1:50 with B(OH)3 by wt
# Sample.reference: none
# Sample.temperature: room temperature
# Scan.start_time: 1997-01-20 15:45:55
# ///
#    Note: mono d_spacing is nominal!
#     exafs to K15
#     381  E XMU I0
#-------------
#   energy   i0   itrans
    5789  242417  139709
    5810.25  243766  149529
    5831.5  244836  159848
    5852.75  245460  170402
    5874  245471  181154
    5895.25  246337  193022
    5916.5  246124  204613
    5937.75  246427  217227
    5959  246378  230024
    5960.52  246092  230703
    5962.03  246033  231556
    5963.54  246079  232659
    5965.06  245684  233202
    5966.58  246073  234517
    5968.09  245738  235147
    5969.6  245912  236311
    5971.12  245489  236791
    5972.64  244536  236770
    5974.15  243228  236593
    5975.67  242929  237419
    5977.18  243174  238172
    5978.7  244651  240612
    5980.21  245348  242180
    5981.73  245192  242910
    5983.24  244686  243210
    5984.76  235175  234711
    5986.27  228947  228493
    5987.79  241684  241314
    5989.3  243607  240353
    5990.82  244198  236510
    5992.33  244703  236054
    5993.85  243892  232403
    5995.36  240810  211743
    5996.88  240928  186155
    5998.39  243968  175801
    5999.91  244853  177860
    6001.42  245169  184524
    6002.94  245340  185768
    6004.45  245290  181372
    6005.97  245423  177859
    6007.49  245487  175555
    6009  245339  173466
    6009.04  245080  173212
    6009.15  245503  173339
    6009.35  246032  173526
    6009.62  246019  173188
    6009.97  246077  172884
    6010.39  246669  172965
    6010.89  247082  173097
    6011.47  247390  173391
    6012.13  248185  174370
    6012.86  248632  175323
    6013.67  249187  176536
    6014.56  249503  177533
    6015.53  250306  178618
    6016.57  251347  179639
    6017.69  251884  180304
    6018.88  252500  181356
    6020.16  253660  182946
    6021.51  254376  184391
    6022.94  255164  186291
    6024.44  256162  188945
    6026.03  257798  192693
    6027.69  258585  195878
    6029.43  259575  199302
    6031.24  260926  203896
    6033.14  262078  208672
    6035.1  263372  212730
    6037.15  264404  215131
    6039.27  265945  216986
    6041.47  267264  218040
    6043.75  268830  219485
    6046.11  270194  220595
    6048.54  271622  221011
    6051.05  273449  222022
    6053.64  274948  223232
    6056.3  276520  224198
    6059.04  277588  224600
    6061.86  278925  226152
    6064.76  280818  229099
    6067.73  282869  233001
    6070.78  284549  236308
    6073.91  286123  240427
    6077.11  288434  247531
    6080.4  290358  255029
    6083.76  292082  261627
    6087.19  294663  268327
    6090.7  296310  273115
    6094.3  298765  277743
    6097.97  300908  281637
    6101.71  303216  285532
    6105.53  305711  289353
    6109.43  308043  291974
    6113.41  310869  294798
    6117.46  313276  298265
    6121.6  315478  302722
    6125.81  318038  309048
    6130.09  320468  316026
    6134.45  323336  323160
    6138.89  325885  330505
    6143.41  328555  338590
    6148.01  331677  346979
    6152.68  334570  354808
    6157.43  337061  362212
    6162.26  340013  370053
    6167.16  342874  377966
    6172.14  346161  387101
    6177.2  348716  396397
    6182.33  352260  405388
    6187.55  355147  412293
    6192.84  358003  419139
    6198.2  361739  427786
    6203.65  364511  436138
    6209.17  367785  445820
    6214.77  370975  456035
    6220.45  373969  466900
    6226.2  377636  479184
    6232.03  380932  491484
    6237.94  381621  500242
    6243.92  378935  504593
    6249.98  391134  529387
    6256.12  394242  542642
    6262.34  397790  555930
    6268.63  401286  568805
    6275.01  405546  582093
    6281.45  408935  594328
    6287.98  412187  607433
    6294.58  416101  622321
    6301.26  420233  638047
    6308.02  423607  653093
    6314.85  428611  671564
    6321.77  431294  687162
    6328.76  435354  705538
    6335.82  439328  724104
    6342.97  443256  742689
    6350.19  447914  762663
    6357.48  451234  781256
    6364.86  455096  801716
    6372.31  459294  822895
    6379.84  464235  845596
    6387.45  466866  864086
    6395.13  471367  886300
    6402.89  475184  907848
    6410.73  479661  931383
    6418.65  484050  955852
    6426.64  488010  980429
    6434.71  491680  1.00562e+06
    6442.86  495590  1.03199e+06
    6451.08  500828  1.06162e+06
    6459.38  504632  1.08948e+06
    6467.76  508545  1.11773e+06
    6476.22  513613  1.14915e+06
    6484.75  517584  1.17883e+06
    6493.36  521472  1.20868e+06
    6502.05  525876  1.24027e+06
    6510.82  530399  1.27304e+06
    6519.66  534683  1.30623e+06
    6528.58  538263  1.33835e+06
    6537.58  542626  1.37359e+06
    6546.65  547039  1.40986e+06
    6555.8  551352  1.44719e+06
    6565.03  555750  1.48596e+06
    6574.33  559569  1.524e+06
    6583.72  564157  1.56519e+06
    6593.18  568941  1.60775e+06
    6602.72  572728  1.64859e+06
    6612.33  576854  1.69149e+06
    6622.02  580400  1.73377e+06
    6631.79  584829  1.77966e+06
    6641.64  589448  1.82658e+06
    6651.56  593144  1.87205e+06
    6661.56  596856  1.91852e+06
    6671.64  601142  1.96777e+06
    6681.8  604144  2.01442e+06
    6692.03  607690  2.06381e+06
    6702.34  610089  2.11076e+06
    6712.73  592155  2.08531e+06
    6723.19  628179  2.25312e+06
    6733.73  627084  2.295e+06
    6744.35  633235  2.36159e+06
    6755.04  644239  2.4485e+06
    6765.82  633378  2.45011e+06
    6776.67  642198  2.53545e+06
    6787.6  621859  2.50229e+06
    6798.6  663167  2.71938e+06
    6809.68  661977  2.76546e+06
    6820.84  664753  2.83004e+06
    6832.08  667216  2.89505e+06
    6843.39  670286  2.96394e+06
    6854.78  674292  3.03894e+06
    6866.25  678424  3.11633e+06