File: data/Cr/cr2s3_100K_004.xdi
# XDI/1.0
# Column.1: energy eV
# Column.2: i0
# Column.3: itrans
# Column.4: irefer
# Beamline.name: SSRL 2-3
# Beamline.notes: vert slits = 0.6mm
# Detector.I0: N2 15cm
# Detector.I1: N2 30cm
# Detector.I2: N2 15cm
# Element.edge: K
# Element.symbol: Cr
# Mono.d_spacing: 3.13550
# Mono.name: Si(111)
# Mono.notes: unfocused, detuned 75%, clockwise at E=5990eV
# Sample.formula: Cr2S3
# Sample.name: Cr2S3
# Sample.prep: powder on tape (4 layers)
# Sample.reference: Cr foil
# Sample.temperature: 100K
# Scan.start_time: 1997-04-18 17:59:32
# ///
#    Note: mono d_spacing is nominal!
#     exafs to K16
#     396  E XMU XMUR I0
#-------------
#   energy   i0   itrans  irefer
    5759.99  223721  9241.7  1180.3
    5780.01  223236  9610.7  1243.3
    5799.97  222656  9978.7  1307.3
    5820  222088  10366.7  1376.3
    5839.97  221617  10763.7  1446.3
    5860.02  221234  11175.7  1519.3
    5879.99  220662  11588.7  1594.3
    5899.97  220136  12011.7  1671.3
    5920.02  219376  12432.7  1750.3
    5939.99  218794  12862.7  1830.3
    5959.97  218120  13285.7  1908.3
    5970.49  217384  13476.7  1945.3
    5971.53  216148  13422.7  1941.3
    5972.49  213729  13294.7  1922.3
    5973.53  216124  13462.7  1948.3
    5974.5  217390  13563.7  1963.3
    5975.46  217581  13593.7  1969.3
    5976.51  217511  13613.7  1973.3
    5977.47  217367  13624.7  1972.3
    5978.52  217299  13648.7  1975.3
    5979.48  217455  13670.7  1983.3
    5980.53  217258  13678.7  1983.3
    5981.49  217392  13703.7  1986.3
    5982.46  217232  13714.7  1989.3
    5983.51  217623  13754.7  1995.3
    5984.48  217501  13757.7  1993.3
    5985.52  216323  13694.7  1985.3
    5986.49  205551  13022.7  1884.3
    5987.46  187837  11905.7  1721.3
    5988.51  205617  13030.7  1873.3
    5989.48  212374  13424.7  1903.3
    5990.53  214295  13403.7  1811.3
    5991.5  214658  13153.7  1692.3
    5992.47  215075  12920.7  1606.3
    5993.52  215124  12825.7  1551.3
    5994.49  215392  12851.7  1523.3
    5995.47  215159  12731.7  1491.3
    5996.51  215543  12097.7  1412.3
    5997.49  215239  10630.7  1240.3
    5998.54  215156  9070.7  1041.3
    5999.51  215247  8175.7   906.3
    6000.49  214699  7755.7   825.3
    6001.46  212389  7811.7   800.3
    6002.51  213170  8278.7   823.3
    6003.49  215218  8701.7   845.3
    6004.47  215318  8775.7   835.3
    6005.52  215080  8520.7   795.3
    6006.5  215390  8244.7   758.3
    6007.47  215203  8023.7   723.3
    6008.53  215263  7850.7   693.3
    6009.5  215159  7717.7   670.3
    6010.94  215122  7539.46   642.064
    6012.82  215115  7347.51   644.181
    6014.78  214763  7399.62   678.414
    6016.81  215333  7543.78   698.765
    6018.93  215250  7527   683.233
    6021.12  215698  7551.27   674.817
    6023.39  215881  7608.6   685.518
    6025.73  216547  7769.98   707.335
    6028.16  217096  8037.41   719.27
    6030.58  217799  8258.9   728.321
    6033.16  218266  8555.45   748.49
    6035.82  219044  8934.05   779.774
    6038.56  219948  9132.7   792.176
    6041.37  220673  9154.41   791.695
    6044.26  221588  9112.17   791.331
    6047.24  222481  9104.99   799.083
    6050.29  223945  9032.85   801.952
    6053.42  224939  8946.78   811.938
    6056.56  226427  8937.76   831.041
    6059.85  227378  8858.79   835.26
    6063.22  228306  8820.88   836.597
    6066.68  229363  8864.03   830.05
    6070.13  230950  9007.22   825.621
    6073.75  232624  9088.47   818.307
    6077.37  234147  9323.78   854.111
    6081.15  236155  9803.13   923.031
    6084.93  237705  10234.6   990.069
    6088.8  239779  10606  1026.22
    6092.83  241714  10881.5  1013.49
    6096.86  243489  11019.1   983.881
    6100.98  245729  11121.8   967.387
    6105.18  247877  11217.4   994.008
    6109.46  249928  11267.2  1046.75
    6113.83  252334  11197  1080.6
    6118.28  254787  11181.8  1093.57
    6122.74  257164  11280.7  1098.66
    6127.36  259566  11535.7  1128.87
    6131.99  262154  11882.7  1177.19
    6136.79  264721  12201.8  1219.63
    6141.59  267446  12516.9  1246.19
    6146.48  270124  12877.1  1276.86
    6151.46  272899  13196.3  1294.65
    6156.53  275580  13483.6  1317.55
    6161.6  278536  13762.9  1325.58
    6166.84  281472  14048.3  1330.72
    6172.1  284725  14373.8  1382.97
    6177.52  287907  14853.3  1473.35
    6182.95  290873  15233.8  1540.84
    6188.47  294097  15399.4  1572.45
    6194.08  297180  15531.1  1594.17
    6199.7  300516  15735.8  1627.01
    6205.5  303937  16031.6  1669.97
    6211.3  306923  16343.4  1719.04
    6217.2  310577  16731.3  1773.24
    6223.19  314386  17182.2  1809.54
    6229.2  317979  17679.2  1842.97
    6235.38  319705  18060.3  1855.51
    6241.56  316738  18153.4  1848.17
    6247.85  328544  19062.5  1944.95
    6254.23  332519  19616.7  2046.84
    6260.71  336575  20180  2158.85
    6267.2  340207  20634.3  2223.97
    6273.79  344098  21019.7  2276.21
    6280.48  348115  21329.1  2323.58
    6287.26  352550  21709.6  2374.05
    6294.06  356172  22198.2  2434.65
    6300.95  360296  22730.8  2515.36
    6307.95  364344  23225.4  2586.19
    6315.05  369011  23830.1  2657.13
    6322.16  373087  24442.8  2714.19
    6329.38  377354  25073.6  2783.36
    6336.69  381768  25742.5  2858.66
    6344.11  386294  26374.4  2946.07
    6351.55  390593  26945.4  3035.6
    6359.09  395039  27576.4  3135.25
    6366.65  399147  28290.5  3260.01
    6374.31  403654  29047.6  3371.88
    6382.07  407863  29738.8  3463.88
    6389.95  412115  30372.1  3547.99
    6397.84  416522  31010.4  3644.22
    6405.84  421309  31695.7  3730.57
    6413.95  425795  32362.1  3827.03
    6422.08  430562  33102.6  3940.61
    6430.32  434864  33862.1  4045.3
    6438.58  439052  34721.7  4152.12
    6446.95  444251  35649.3  4279.05
    6455.43  448999  36547  4429.09
    6463.93  453621  37497.7  4577.26
    6472.55  457834  38376.5  4705.54
    6481.28  462498  39304.3  4846.93
    6490.03  467601  40275.2  4993.45
    6498.9  471947  41161.2  5119.08
    6507.79  476296  42029.2  5245.82
    6516.8  480735  42941.3  5397.69
    6525.92  485650  43951.4  5558.68
    6535.07  490129  44926.5  5713.77
    6544.25  494359  45924.8  5866.99
    6553.54  498096  46880  6005.32
    6562.95  502682  47972.4  6172.77
    6572.4  507706  49186.7  6364.33
    6581.96  512151  50344.2  6557.02
    6591.55  516151  51414.7  6737.81
    6601.26  520997  52568.2  6926.73
    6611.09  525869  53806.8  7125.76
    6620.95  530028  54973.5  7314.91
    6630.85  534601  56203.2  7515.18
    6640.87  537892  57284  7706.56
    6650.92  542906  58575.8  7919.06
    6661.1  546632  59762.7  8121.68
    6671.31  550792  61008.6  8329.42
    6681.64  554957  62247.6  8543.26
    6692.01  557766  63380.6  8740.23
    6702.51  534407  61569.8  8529.31
    6713.04  573920  66975.9  9324.51
    6723.7  575080  68061.1  9515.83
    6734.4  576360  69183.3  9725.26
    6745.14  581232  70746.6  10002.8
    6756  575140  71018  10096.5
    6766.91  590753  73918.4  10564.3
    6777.94  595881  75616.9  10858.2
    6789.02  597068  76819.4  11096.2
    6800.23  595512  77672  11288.3
    6811.48  616445  81473.7  11904.6
    6822.77  613800  82267.3  12084.9
    6834.19  615973  83692.1  12356.4
    6845.66  619191  85298.9  12655
    6857.16  622454  86946.8  12965.8
    6868.81  625095  88542.6  13275.6
    6880.5  628110  90250.6  13606.5
    6892.33  631481  91988.7  13938.6
    6904.2  635177  93834.7  14280.8
    6916.11  639423  95785.8  14660.1
    6928.18  641169  97419  14990.5
    6940.28  644844  99328.3  15374.1
    6952.43  647843  101185  15748.7
    6964.62  650054  102910  16091.5
    6976.96  653200  104883  16491.4
    6989.35  655143  106621  16848.4
    7001.88  658055  108551  17239.5
    7014.47  661418  110537  17633.7
    7027.1  664307  112536  18041.1
    7039.77  666428  114418  18441.6
    7052.6  668665  116365  18849.2
    7065.48  671213  118367  19280.9
    7078.41  673574  120418  19714.7
    7091.39  676445  122579  20167.6
    7104.53  676947  124328  20567.7
    7111.06  678026  125336  20789.5