File: data/Cr/cr2s3_15K_003.xdi
# XDI/1.0
# Column.1: energy eV
# Column.2: i0
# Column.3: itrans
# Column.4: irefer
# Beamline.name: SSRL 2-3
# Beamline.notes: vert slits = 0.6mm
# Detector.I0: N2 15cm
# Detector.I1: N2 30cm
# Detector.I2: N2 15cm
# Element.edge: K
# Element.symbol: Cr
# Mono.d_spacing: 3.13550
# Mono.name: Si(111)
# Mono.notes: unfocused, detuned 75%, clockwise at E=5990eV
# Sample.formula: Cr2S3
# Sample.name: Cr2S3
# Sample.prep: powder on tape (4 layers)
# Sample.reference: Cr foil
# Sample.temperature: 15K
# Scan.start_time: 1997-04-18 16:16:50
# ///
#    Note: mono d_spacing is nominal!
#     exafs to K16
#     396  E XMU XMUR I0
#-------------
#   energy   i0   itrans  irefer
    5759.99  227698  9071.7  1163.3
    5780.01  227176  9431.7  1226.3
    5799.97  226651  9799.7  1289.3
    5820  226093  10183.7  1357.3
    5839.97  225632  10576.7  1426.3
    5860.02  225267  10988.7  1498.3
    5879.99  224696  11400.7  1573.3
    5899.97  224037  11811.7  1649.3
    5920.02  223220  12224.7  1726.3
    5939.99  222511  12645.7  1802.3
    5959.97  222124  13078.7  1886.3
    5970.49  221462  13281.7  1923.3
    5971.53  220425  13239.7  1919.3
    5972.49  217817  13107.7  1902.3
    5973.53  220171  13264.7  1924.3
    5974.5  221477  13366.7  1941.3
    5975.46  221806  13405.7  1946.3
    5976.51  221528  13409.7  1947.3
    5977.47  221656  13437.7  1951.3
    5978.52  221366  13446.7  1953.3
    5979.48  221663  13480.7  1957.3
    5980.53  221316  13481.7  1959.3
    5981.49  221797  13523.7  1966.3
    5982.46  222014  13552.7  1968.3
    5983.51  221881  13564.7  1972.3
    5984.48  221838  13581.7  1974.3
    5985.52  220802  13526.7  1965.3
    5986.49  211626  12973.7  1883.3
    5987.46  190914  11708.7  1698.3
    5988.51  208452  12783.7  1845.3
    5989.48  215860  13209.7  1883.3
    5990.53  218206  13232.7  1804.3
    5991.5  218686  12995.7  1686.3
    5992.47  218989  12749.7  1595.3
    5993.52  219026  12629.7  1537.3
    5994.49  218988  12639.7  1506.3
    5995.47  219281  12578.7  1479.3
    5996.51  219183  11998.7  1407.3
    5997.49  219151  10613.7  1244.3
    5998.54  219142  9017.7  1042.3
    5999.51  219055  8086.7   904.3
    6000.49  218768  7635.7   821.301
    6001.46  216206  7648.7   791.3
    6002.51  216562  8090.7   810.3
    6003.49  218769  8532.7   833.3
    6004.47  218971  8639.7   828.299
    6005.52  218927  8408.7   790.299
    6006.5  218715  8112.7   750.3
    6007.47  218794  7898.7   716.3
    6008.53  218854  7720.7   686.3
    6009.5  219085  7602.7   664.3
    6010.94  218848  7415.46   636.064
    6012.82  218924  7218.51   638.181
    6014.78  219112  7285.62   672.415
    6016.81  218899  7403.79   690.765
    6018.93  219184  7406   677.232
    6021.12  219116  7405.27   666.817
    6023.39  220004  7481.6   680.518
    6025.73  220444  7633.98   698.335
    6028.16  221093  7902.41   712.27
    6030.58  221764  8122.91   722.322
    6033.16  222262  8400.45   741.49
    6035.82  223241  8794.04   773.773
    6038.56  224064  8993.7   789.176
    6041.37  225001  9024.4   784.695
    6044.26  226098  8989.17   786.331
    6047.24  226926  8977.99   794.083
    6050.29  227985  8889.85   798.952
    6053.42  229236  8812.78   808.938
    6056.56  230494  8795.76   824.041
    6059.85  231646  8723.79   829.26
    6063.22  232518  8679.88   830.597
    6066.68  233762  8730.02   825.05
    6070.13  235434  8881.22   819.621
    6073.75  237255  8959.47   812.307
    6077.37  238793  9170.78   846.111
    6081.15  240478  9633.14   916.031
    6084.93  242253  10076.6   983.07
    6088.8  244281  10444  1018.22
    6092.83  246417  10725.5  1006.49
    6096.86  248192  10872.1   976.882
    6100.98  250303  10970.8   958.386
    6105.18  252385  11056.4   984.008
    6109.46  254772  11121.2  1035.75
    6113.83  257256  11040  1070.6
    6118.28  259603  11008.8  1081.57
    6122.74  261895  11091.7  1084.66
    6127.36  264125  11343.7  1109.87
    6131.99  266910  11715.7  1160.19
    6136.79  269675  12037.8  1202.63
    6141.59  272488  12350.9  1230.18
    6146.48  275241  12709.1  1259.86
    6151.46  278046  13019.3  1274.65
    6156.53  280747  13289.6  1297.55
    6161.6  283910  13568.9  1304.58
    6166.84  286614  13835.3  1307.72
    6172.1  289937  14155.8  1362.98
    6177.52  293213  14660.3  1450.35
    6182.95  296337  15053.8  1522.84
    6188.47  299563  15211.4  1552.45
    6194.08  302990  15338.1  1576.17
    6199.7  306428  15539.8  1608.01
    6205.5  309195  15789.6  1646.97
    6211.3  312817  16147.4  1704.05
    6217.2  316295  16506.3  1753.24
    6223.19  320061  16930.2  1788.54
    6229.2  323587  17427.2  1819.97
    6235.38  325658  17822.3  1836.51
    6241.56  322499  17910.4  1828.17
    6247.85  334399  18799.5  1926.95
    6254.23  338580  19356.7  2029.84
    6260.71  342413  19912  2140.85
    6267.2  346115  20375.3  2207.97
    6273.79  350401  20776.7  2259.22
    6280.48  354220  21046.1  2303.58
    6287.26  358375  21388.6  2348.05
    6294.06  362585  21891.1  2410.65
    6300.95  366432  22417.7  2490.36
    6307.95  371009  22927.4  2562.18
    6315.05  374862  23468.1  2626.13
    6322.16  379043  24088.8  2686.19
    6329.38  383637  24735.6  2753.37
    6336.69  388091  25395.5  2829.66
    6344.11  392604  26033.4  2915.07
    6351.55  396988  26573.4  3001.6
    6359.09  401256  27156.4  3095.24
    6366.65  405636  27891.5  3211
    6374.31  410120  28662.6  3324.88
    6382.07  414624  29368.8  3418.88
    6389.95  419103  30023.1  3508.99
    6397.84  423787  30663.4  3601.22
    6405.84  427982  31285.7  3686.56
    6413.95  432301  31926.1  3771.03
    6422.08  436816  32606.6  3876.61
    6430.32  441289  33358.1  3977.31
    6438.58  445910  34248.7  4095.12
    6446.95  450770  35154.3  4218.04
    6455.43  455098  35998  4357.09
    6463.93  460045  36958.7  4507.26
    6472.55  464764  37865.5  4638.54
    6481.28  469074  38769.3  4781.93
    6490.03  473705  39688.2  4921.45
    6498.9  478021  40565.2  5051.08
    6507.79  482570  41406.2  5180.83
    6516.8  487396  42315.3  5328.69
    6525.92  491937  43273.4  5491.68
    6535.07  496374  44236.5  5639.77
    6544.25  500964  45261.8  5790.99
    6553.54  504378  46167  5926.32
    6562.95  508532  47218.4  6086.77
    6572.4  513265  48392.7  6274.33
    6581.96  517723  49549.2  6466.01
    6591.55  522922  50726.7  6655.81
    6601.26  527009  51761.2  6832.73
    6611.09  531466  52925.8  7016.76
    6620.95  535648  54076.5  7210.91
    6630.85  540464  55318.2  7407.17
    6640.87  544669  56506  7611.56
    6650.92  549017  57696.8  7814.06
    6661.1  553225  58926.7  8029.67
    6671.31  557520  60162.6  8231.41
    6681.64  560894  61301.6  8430.26
    6692.01  564189  62460.6  8628.23
    6702.51  541694  60818.7  8431.31
    6713.04  580736  66053.9  9204.51
    6723.7  581801  67098.1  9386.82
    6734.4  583106  68224.3  9599.26
    6745.14  588604  69867.6  9887.82
    6756  581735  70047  9968.49
    6766.91  598180  73015.4  10450.3
    6777.94  603244  74701.9  10745.2
    6789.02  604922  75908.5  10974.2
    6800.23  602871  76674  11140.3
    6811.48  624625  80534.6  11758.6
    6822.77  621448  81267.3  11932.9
    6834.19  624076  82724  12207.4
    6845.66  626098  84161.8  12481
    6857.16  630298  85919.7  12799.7
    6868.81  634274  87717.7  13134.6
    6880.5  637455  89434.6  13471.6
    6892.33  640507  91119.7  13803.6
    6904.2  643705  92889.7  14151.8
    6916.11  646486  94620.8  14485.1
    6928.18  648945  96341  14826.5
    6940.28  651574  98071.2  15179.1
    6952.43  654360  99876.6  15542.7
    6964.62  656959  101659  15903.5
    6976.96  660499  103629  16290.4
    6989.35  662725  105419  16667.4
    7001.88  665233  107281  17046.5
    7014.47  667272  109071  17420.7
    7027.1  670105  111017  17814.1
    7039.77  672389  112885  18205.6
    7052.6  675682  114982  18637.2
    7065.48  678019  116977  19059.9
    7078.41  679751  118892  19474.7
    7091.39  681448  120825  19883.6
    7104.53  683081  122767  20310.7
    7111.06  684360  123828  20536.5