File: data/Cr/cro2_15K_003.xdi
# XDI/1.0
# Column.1: energy eV
# Column.2: i0
# Column.3: itrans
# Column.4: irefer
# Beamline.name: SSRL 2-3
# Beamline.notes: vert slits = 0.6mm
# Detector.I0: N2 15cm
# Detector.I1: N2 30cm
# Detector.I2: N2 15cm
# Element.edge: K
# Element.symbol: Cr
# Mono.d_spacing: 3.13550
# Mono.name: Si(111)
# Mono.notes: unfocused, detuned 75%, clockwise at E=5990eV
# Sample.formula: CrO2
# Sample.name: CrO2
# Sample.prep: powder on tape (4 layers)
# Sample.reference: Cr foil
# Sample.temperature: 15K
# Scan.start_time: 1997-04-18 13:47:10
# ///
#    Note: mono d_spacing is nominal!
#     exafs to K16
#     396  E XMU XMUR I0
#-------------
#   energy   i0   itrans  irefer
    5759.99  146751  9436.7  1196.3
    5780.01  145525  9707.7  1245.3
    5799.97  144101  9972.7  1295.3
    5820  142915  10252.7  1348.3
    5839.97  141703  10532.7  1404.3
    5860.02  140585  10827.7  1463.3
    5879.99  139050  11087.7  1514.3
    5899.97  137763  11371.7  1573.3
    5920.02  136512  11654.7  1631.3
    5939.99  135028  11910.7  1683.3
    5959.97  133819  12188.7  1742.3
    5970.49  130991  12131.7  1744.3
    5971.53  130986  12153.7  1748.3
    5972.49  129888  12071.7  1735.3
    5973.53  129541  12045.7  1732.3
    5974.5  131373  12241.7  1762.3
    5975.46  131406  12256.7  1764.3
    5976.51  131389  12276.7  1770.3
    5977.47  131574  12308.7  1774.3
    5978.52  131400  12314.7  1776.3
    5979.48  131620  12352.7  1782.3
    5980.53  131456  12352.7  1782.3
    5981.49  131452  12371.7  1785.3
    5982.46  131593  12403.7  1790.3
    5983.51  131331  12396.7  1789.3
    5984.48  131485  12426.7  1793.3
    5985.52  131672  12471.7  1799.3
    5986.49  130019  12340.7  1779.3
    5987.46  122032  11606.7  1671.3
    5988.51  118405  11247.7  1617.3
    5989.48  125450  11944.7  1707.3
    5990.53  127219  12124.7  1695.3
    5991.5  128014  12205.7  1622.3
    5992.47  128262  12207.7  1553.3
    5993.52  128260  12201.7  1500.3
    5994.49  128364  12208.7  1465.3
    5995.47  128294  12196.7  1435.3
    5996.51  128139  12193.7  1422.3
    5997.49  128205  12227.7  1422.3
    5998.54  128144  12243.7  1418.3
    5999.51  127936  12220.7  1383.3
    6000.49  127830  12174.7  1326.3
    6001.46  127299  12028.7  1260.3
    6002.51  125888  11737.7  1183.3
    6003.49  127552  11732.7  1150.3
    6004.47  128156  11611.7  1114.3
    6005.52  128027  11452.7  1076.3
    6006.5  127863  11307.7  1045.3
    6007.47  127639  11118.7  1009.3
    6008.53  127637  10888.7   969.3
    6009.5  127544  10635.7   930.3
    6010.94  127345  10276.5   875.064
    6012.82  127337  10167.5   870.18
    6014.78  127219  10239.6   921.415
    6016.81  127449  10444.8   963.765
    6018.93  127392  10570   962.232
    6021.12  127463  10712.3   954.817
    6023.39  127567  10854.6   968.518
    6025.73  127797  10870   983.336
    6028.16  128233  10867.4   972.27
    6030.58  128429  10945.9   964.322
    6033.16  128984  11210.4   978.49
    6035.82  129180  11441   995.774
    6038.56  129653  11684.7  1012.18
    6041.37  129912  11866.4  1017.7
    6044.26  130279  11955.2  1031.33
    6047.24  130804  11997  1043.08
    6050.29  131275  12089.9  1060.95
    6053.42  132058  12233.8  1096.94
    6056.56  132485  12285.8  1128.04
    6059.85  133156  12310.8  1148.26
    6063.22  133776  12352.9  1162.6
    6066.68  134131  12391  1155.05
    6070.13  134931  12457.2  1137.62
    6073.75  135612  12542.5  1121.31
    6077.37  136426  12735.8  1154.11
    6081.15  137210  12940.1  1206.03
    6084.93  138063  13125.6  1258.07
    6088.8  139102  13311  1286.22
    6092.83  139945  13474.5  1258.49
    6096.86  140764  13647.1  1218.88
    6100.98  141895  13874.7  1200.39
    6105.18  142740  14084.4  1233.01
    6109.46  143820  14276.2  1305.75
    6113.83  145079  14451  1378.6
    6118.28  145990  14657.8  1425.57
    6122.74  147220  14953.7  1448.66
    6127.36  148570  15269.7  1477.87
    6131.99  149294  15493.7  1520.19
    6136.79  150713  15742.8  1558.63
    6141.59  151630  15899.9  1574.18
    6146.48  152786  16107.1  1587.86
    6151.46  154262  16334.3  1590.65
    6156.53  155510  16524.6  1603.55
    6161.6  156654  16765.9  1605.58
    6166.84  158020  17055.3  1603.72
    6172.1  159291  17326.8  1649.98
    6177.52  160666  17644.3  1730.35
    6182.95  161020  17861.8  1791.84
    6188.47  163532  18330.4  1857.45
    6194.08  164618  18626.1  1896.17
    6199.7  165410  18872.8  1937.01
    6205.5  167250  19221.6  1985.97
    6211.3  167610  19416.4  2029.04
    6217.2  169126  19789.3  2088.24
    6223.19  170455  20129.2  2115.54
    6229.2  172302  20543.2  2138.97
    6235.38  174166  20962.3  2153.51
    6241.56  174067  21107.4  2143.17
    6247.85  176915  21645.5  2196.95
    6254.23  179154  22137.7  2292.84
    6260.71  179155  22302  2369.85
    6267.2  181732  22808.3  2449.97
    6273.79  183525  23248.7  2501.22
    6280.48  185292  23658.1  2562.58
    6287.26  186883  24095.6  2620.05
    6294.06  186685  24304.2  2649.65
    6300.95  188747  24803.7  2727.35
    6307.95  190280  25237.4  2794.18
    6315.05  192104  25731.1  2856.13
    6322.16  193403  26140.9  2894.19
    6329.38  195049  26625.7  2941.37
    6336.69  196456  27088.5  2991.66
    6344.11  198019  27552.4  3058.07
    6351.55  199449  28025.4  3137.6
    6359.09  201142  28569.4  3227.24
    6366.65  202563  29076.5  3321
    6374.31  204576  29653.6  3418.88
    6382.07  206260  30208.8  3495.88
    6389.95  207984  30758.1  3572.99
    6397.84  207460  30976.4  3615.22
    6405.84  208989  31519.7  3685.57
    6413.95  211272  32196.1  3780.03
    6422.08  212840  32751.6  3870.61
    6430.32  214488  33344.1  3958.31
    6438.58  213820  33593.7  3991.12
    6446.95  215451  34221.3  4087.05
    6455.43  216729  34822  4191.1
    6463.93  218244  35441.7  4295.26
    6472.55  219306  35992.5  4385.54
    6481.28  220402  36561.3  4479.93
    6490.03  222068  37224.3  4589.45
    6498.9  223313  37822.2  4682.08
    6507.79  224876  38511.2  4787.83
    6516.8  225172  38979.3  4881.69
    6525.92  228096  39942.4  5034.67
    6535.07  228981  40544.5  5136.77
    6544.25  230377  41225.8  5242.99
    6553.54  231017  41812  5334.32
    6562.95  232018  42470.4  5444.76
    6572.4  232166  42955.8  5537.33
    6581.96  233149  43584.2  5649.01
    6591.55  232193  43852.7  5719.81
    6601.26  233488  44573.2  5848.73
    6611.09  234448  45257.8  5969.76
    6620.95  235264  45933.5  6087.91
    6630.85  236038  46598.2  6208.18
    6640.87  236838  47273  6334.56
    6650.92  237798  47995.8  6468.06
    6661.1  238712  48697.7  6595.68
    6671.31  239181  49313.6  6708.41
    6681.64  239365  49880.6  6819.26
    6692.01  239269  50413.6  6920.23
    6702.51  229969  49045.7  6776.31
    6713.04  247132  53234.9  7386.51
    6723.7  245725  53503.1  7462.83
    6734.4  243739  53673.3  7523.26
    6745.14  245214  54627.7  7702.82
    6756  238863  53765  7625.48
    6766.91  247698  56399.4  8041.27
    6777.94  248052  57108.9  8184.17
    6789.02  246623  57413.4  8280.19
    6800.23  244156  57485  8336.32
    6811.48  257807  61388.6  8946.57
    6822.77  251698  60629.3  8881.95
    6834.19  250510  61030.1  8986.43
    6845.66  250409  61687.9  9133.04
    6857.16  250599  62441.7  9285.75
    6868.81  250674  63170.7  9443.59
    6880.5  249816  63668.6  9565.54
    6892.33  249916  64419.7  9727.61
    6904.2  250373  65276.7  9911.8
    6916.11  250526  66049.8  10087.1
    6928.18  242935  64766  9940.52
    6940.28  242979  65498.2  10118.1
    6952.43  242961  66244.5  10275.7
    6964.62  243077  67017.9  10455.5
    6976.96  243137  67776.3  10631.4
    6989.35  243236  68573.8  10805.4
    7001.88  243645  69447.2  11002.5
    7014.47  243374  70145.8  11169.7
    7027.1  243477  70940.4  11352.1
    7039.77  243553  71737.1  11536.6
    7052.6  243595  72542.8  11728.1
    7065.48  243634  73350.6  11918.9
    7078.41  243587  74140.5  12112.7
    7091.39  242888  74729.3  12258.6
    7104.53  242726  75501.3  12451.7
    7111.06  242868  75957.5  12552.5