File: data/Cr/cro2_rt_003.xdi
# XDI/1.0
# Column.1: energy eV
# Column.2: i0
# Column.3: itrans
# Column.4: irefer
# Beamline.name: SSRL 2-3
# Beamline.notes: vert slits = 0.6mm
# Detector.I0: N2 15cm
# Detector.I1: N2 30cm
# Detector.I2: N2 15cm
# Element.edge: K
# Element.symbol: Cr
# Mono.d_spacing: 3.13550
# Mono.name: Si(111)
# Mono.notes: unfocused, detuned 75%, clockwise at E=5990eV
# Sample.formula: CrO2
# Sample.name: CrO2
# Sample.prep: powder on tape (4 layers)
# Sample.reference: Cr foil
# Sample.temperature: room temp
# Scan.start_time: 1997-04-17 19:39:50
# ///
#    Note: mono d_spacing is nominal!
#     exafs to K16
#     396  E XMU XMUR I0
#-------------
#   energy   i0   itrans  irefer
    5759.99  25491.9  22303.5  2831.7
    5780.01  25397.9  22973.5  2953.7
    5799.97  25298.9  23665.5  3081.7
    5820  25207.9  24373.5  3212.7
    5839.97  25131.9  25100.5  3353.7
    5860.02  25057.9  25857.5  3495.7
    5879.99  24957.9  26582.5  3635.7
    5899.97  24847.9  27307.5  3781.7
    5920.02  24717.9  28023.5  3926.7
    5939.99  24621.9  28770.5  4074.7
    5959.97  24523.9  29504.5  4222.7
    5970.49  24427.9  29853.5  4295.7
    5971.53  24313.9  29753.5  4283.7
    5972.49  24074.9  29492.5  4248.7
    5973.53  24279.9  29786.5  4291.7
    5974.5  24455.9  30036.5  4328.7
    5975.46  24465.9  30099.5  4340.7
    5976.51  24451.9  30126.5  4345.7
    5977.47  24464.9  30173.5  4354.7
    5978.52  24449.9  30204.5  4360.7
    5979.48  24470.9  30269.5  4368.7
    5980.53  24448.9  30277.5  4372.7
    5981.49  24481.9  30366.5  4384.7
    5982.46  24456.9  30382.5  4385.7
    5983.51  24482.9  30453.5  4394.7
    5984.48  24479.9  30494.5  4402.7
    5985.52  24395.9  30425.5  4392.7
    5986.49  23612.9  29485.5  4252.7
    5987.46  21242.9  26549.5  3821.7
    5988.51  22876.9  28637.5  4106.7
    5989.48  23720.9  29726.5  4218.7
    5990.53  24049.9  30162.5  4119.7
    5991.5  24131.9  30229.5  3917.7
    5992.47  24168.9  30229.5  3777.7
    5993.52  24174.9  30233.5  3665.7
    5994.49  24201.9  30244.5  3589.7
    5995.47  24172.9  30212.5  3536.7
    5996.51  24213.9  30313.5  3531.7
    5997.49  24193.9  30350.5  3535.7
    5998.54  24193.9  30371.5  3491.7
    5999.51  24159.9  30287.5  3371.7
    6000.49  24155.9  30119.5  3222.7
    6001.46  23891.9  29474.5  3036.7
    6002.51  23851.9  29021.5  2891.7
    6003.49  24104.9  28907.5  2813.7
    6004.47  24178.9  28612.5  2726.7
    6005.52  24146.9  28241.5  2638.7
    6006.5  24157.9  27897.5  2561.7
    6007.47  24133.9  27412.5  2471.7
    6008.53  24139.9  26808.5  2369.7
    6009.5  24137.9  26196.5  2276.7
    6010.94  24119.7  25566.3  2169.46
    6012.82  24097.8  25421.3  2208.58
    6014.78  24120  25713.4  2343.81
    6016.81  24147.3  26196.5  2419.16
    6018.93  24158.7  26474.7  2399.62
    6021.12  24198.2  26896.9  2394.2
    6023.39  24248.8  27167.1  2433.9
    6025.73  24279.6  27159.4  2458.71
    6028.16  24351.4  27163.8  2421.63
    6030.58  24411.3  27489.1  2414.68
    6033.16  24503.4  28119.6  2450.84
    6035.82  24572.5  28683  2497.11
    6038.56  24664.8  29236.5  2534.5
    6041.37  24742.1  29649.1  2552.01
    6044.26  24857.6  29870.6  2587.63
    6047.24  24958.1  29979.3  2618.37
    6050.29  25084.8  30259.9  2671.22
    6053.42  25195.5  30537.6  2756.19
    6056.56  25336.4  30699.4  2832.28
    6059.85  25473.4  30783.2  2883.48
    6063.22  25520.4  30808  2906.8
    6066.68  25677.6  31017.9  2894.23
    6070.13  25846.9  31196.8  2848.78
    6073.75  26012.3  31512.8  2824.44
    6077.37  26202.8  32010.8  2919.22
    6081.15  26383.4  32513.8  3053.12
    6084.93  26579.1  32971.9  3183.13
    6088.8  26802.9  33457  3236.26
    6092.83  27008.8  33902.2  3160.5
    6096.86  27188.8  34360.4  3065.86
    6100.98  27441.9  34959.7  3037.34
    6105.18  27670.1  35531  3135.93
    6109.46  27903.4  36014.3  3324.64
    6113.83  28147.8  36466.7  3504.46
    6118.28  28400.4  37108.1  3615.4
    6122.74  28659  37838.6  3674.46
    6127.36  28913.7  38592.1  3751.63
    6131.99  29188.6  39270.6  3867.91
    6136.79  29465.5  39843.2  3958.32
    6141.59  29760.6  40422.8  4002.83
    6146.48  30037.7  40979.5  4044.47
    6151.46  30339  41568.2  4055.22
    6156.53  30673.3  42188  4100.08
    6161.6  30969.8  42897.7  4113.07
    6166.84  31290.3  43661.6  4119.17
    6172.1  31622  44440.5  4256.38
    6177.52  31951.8  45325.4  4465.71
    6182.95  32288.7  46215.3  4650.16
    6188.47  32643.6  47154.3  4790.72
    6194.08  32940.7  47995.4  4903.39
    6199.7  33330.9  48926.5  5040.18
    6205.5  33666.2  49761.6  5157.1
    6211.3  34025.6  50686.8  5315.12
    6217.2  34445.1  51757  5474.26
    6223.19  34821.7  52765.2  5555.52
    6229.2  35205.4  53808.5  5601.89
    6235.38  35448.2  54595.9  5610.37
    6241.56  35113.1  54478.3  5543.98
    6247.85  36261.1  56773.7  5790.7
    6254.23  36676.2  57896.1  6035.54
    6260.71  37078.5  58969.6  6310.49
    6267.2  37537.8  60174.2  6488.55
    6273.79  37946.2  61338.8  6639.74
    6280.48  38373.8  62507.4  6810.04
    6287.26  38778.4  63735.1  6960.45
    6294.06  39199.1  64989.8  7124.98
    6300.95  39627  66253.5  7326.63
    6307.95  40049.9  67530.3  7511.39
    6315.05  40567  68999.2  7690.27
    6322.16  41011.1  70359.1  7812.26
    6329.38  41432.4  71729  7948.38
    6336.69  41901.8  73191.9  8124.6
    6344.11  42347.2  74638  8321.95
    6351.55  42784.8  76096  8555.4
    6359.09  43206.5  77601.1  8806.97
    6366.65  43656.3  79127.2  9088.66
    6374.31  44121.1  80694.4  9344.47
    6382.07  44562.1  82283.6  9554.39
    6389.95  44994.2  83823.9  9773.42
    6397.84  45455.4  85431.2  10016.6
    6405.84  45898.7  87072.5  10233.9
    6413.95  46401.1  88857.9  10485.2
    6422.08  46863.6  90595.3  10757.7
    6430.32  47328.2  92336.8  11001.4
    6438.58  47754.9  94098.3  11218.1
    6446.95  48239.7  96004.8  11495.9
    6455.43  48664.7  97838.4  11810.9
    6463.93  49126.7  99717  12127
    6472.55  49595.8  101691  12434.2
    6481.28  50029  103599  12741.5
    6490.03  50496.4  105568  13062.9
    6498.9  50974.8  107627  13355.4
    6507.79  51456.4  109737  13682.1
    6516.8  51906  111798  14030.9
    6525.92  52351.8  113908  14388.8
    6535.07  52796.6  116028  14735.8
    6544.25  53209.6  118095  15060.9
    6553.54  53529.6  120048  15360.1
    6562.95  53984.8  122287  15717.5
    6572.4  54426.1  124496  16086
    6581.96  54877.4  126760  16469.6
    6591.55  55340.9  129072  16880.3
    6601.26  55764.5  131343  17267.1
    6611.09  56129.2  133572  17645
    6620.95  56630  136117  18071.1
    6630.85  57018.8  138427  18469.2
    6640.87  57431.8  140819  18901.5
    6650.92  57829.9  143178  19321.9
    6661.1  58230.1  145657  19758.4
    6671.31  58563.4  147957  20177
    6681.64  58909.8  150285  20582.8
    6692.01  59084.4  152257  20964.6
    6702.51  56294  146495  20261.6
    6713.04  60913.7  160117  22260.7
    6723.7  60869.5  161647  22570.9
    6734.4  60871.4  163310  22925.3
    6745.14  61432.5  166524  23505.7
    6756  60145.6  164670  23378.2
    6766.91  62351.9  172494  24618.9
    6777.94  62784.2  175476  25186.7
    6789.02  62842.6  177463  25607.6
    6800.23  62456.2  178192  25854.6
    6811.48  65177.8  187927  27414.7
    6822.77  64427.6  187686  27514
    6834.19  64585.5  190067  28003.4
    6845.66  64889.4  192956  28578.8
    6857.16  65137.5  195646  29124.5
    6868.81  65370.7  198409  29692.2
    6880.5  65619.9  201052  30243
    6892.33  65829.3  204060  30858.9
    6904.2  66051.8  206853  31450
    6916.11  66292.4  209726  32064.2
    6928.18  66358.1  212128  32613.5
    6940.28  66617.9  215221  33274.9
    6952.43  66822.8  218084  33908.4
    6964.62  67009.8  220914  34527.1
    6976.96  67184.9  223735  35152.8
    6989.35  67314.1  226479  35755.7
    7001.88  67483.4  229334  36392.7
    7014.47  67661.8  232283  37049.8
    7027.1  67840.3  235268  37720
    7039.77  67941  237978  38359.3
    7052.6  68050.7  240794  39005.8
    7065.48  68186.5  243557  39648.3
    7078.41  68364.5  246666  40364
    7091.39  68346.5  249098  40982.8
    7104.53  68412.6  251846  41652.8
    7111.06  68391.5  252967  41938.5