File: data/Cr/cro2_15K_001.xdi
# XDI/1.0
# Column.1: energy eV
# Column.2: i0
# Column.3: itrans
# Column.4: irefer
# Beamline.name: SSRL 2-3
# Beamline.notes: vert slits = 0.6mm
# Detector.I0: N2 15cm
# Detector.I1: N2 30cm
# Detector.I2: N2 15cm
# Element.edge: K
# Element.symbol: Cr
# Mono.d_spacing: 3.13550
# Mono.name: Si(111)
# Mono.notes: unfocused, detuned 75%, clockwise at E=5990eV
# Sample.formula: CrO2
# Sample.name: CrO2
# Sample.prep: powder on tape (4 layers)
# Sample.reference: Cr foil
# Sample.temperature: 15K
# Scan.start_time: 1997-04-18 13:47:10
# ///
#    Note: mono d_spacing is nominal!
#     exafs to K16
#     396  E XMU XMUR I0
#-------------
#   energy   i0   itrans  irefer
    5759.99  150202  9658.7  1224.3
    5780.01  149063  9941.7  1275.3
    5799.97  147213  10183.7  1322.3
    5820  143925  10319.7  1359.3
    5839.97  142704  10607.7  1412.3
    5860.02  141371  10891.7  1468.3
    5879.99  140460  11203.7  1528.3
    5899.97  139402  11506.7  1588.3
    5920.02  138057  11783.7  1646.3
    5939.99  136622  12053.7  1704.3
    5959.97  135637  12356.7  1765.3
    5970.49  134482  12460.7  1788.3
    5971.53  134413  12477.7  1792.3
    5972.49  133949  12454.7  1789.3
    5973.53  133698  12435.7  1788.3
    5974.5  135228  12604.7  1811.3
    5975.46  135454  12650.7  1819.3
    5976.51  135731  12691.7  1825.3
    5977.47  133822  12530.7  1805.3
    5978.52  133939  12557.7  1808.3
    5979.48  133854  12568.7  1809.3
    5980.53  134032  12602.7  1815.3
    5981.49  134002  12626.7  1819.3
    5982.46  134419  12680.7  1828.3
    5983.51  134636  12723.7  1833.3
    5984.48  134907  12767.7  1839.3
    5985.52  134917  12785.7  1840.3
    5986.49  133446  12676.7  1823.3
    5987.46  124918  11893.7  1707.3
    5988.51  119739  11372.7  1631.3
    5989.48  125893  11989.7  1707.3
    5990.53  128730  12277.7  1709.3
    5991.5  129422  12344.7  1631.3
    5992.47  129721  12354.7  1564.3
    5993.52  129806  12355.7  1513.3
    5994.49  129932  12365.7  1476.3
    5995.47  129975  12360.7  1449.3
    5996.51  129959  12371.7  1437.3
    5997.49  130016  12404.7  1441.3
    5998.54  130404  12460.7  1439.3
    5999.51  130545  12478.7  1407.3
    6000.49  130422  12426.7  1349.3
    6001.46  129873  12275.7  1280.3
    6002.51  128406  11977.7  1203.3
    6003.49  130280  11994.7  1172.3
    6004.47  130732  11853.7  1131.3
    6005.52  130784  11701.7  1095.3
    6006.5  130879  11580.7  1066.3
    6007.47  130791  11402.7  1031.3
    6008.53  131064  11191.7   991.3
    6009.5  131353  10959.7   955.3
    6010.94  131033  10582.5   899.064
    6012.82  131002  10462.5   893.181
    6014.78  131026  10546.6   945.415
    6016.81  130947  10730.8   984.765
    6018.93  131019  10873   984.234
    6021.12  131327  11044.3   977.817
    6023.39  131866  11225.6   995.518
    6025.73  132008  11233  1007.33
    6028.16  132515  11229.4   998.27
    6030.58  132856  11321.9   990.322
    6033.16  132600  11525.5   999.49
    6035.82  133346  11809  1023.77
    6038.56  133571  12038.7  1039.18
    6041.37  133997  12244.4  1048.69
    6044.26  134307  12318.2  1058.33
    6047.24  135024  12373  1075.08
    6050.29  135698  12493.9  1096.95
    6053.42  136177  12608.8  1129.94
    6056.56  136548  12660.8  1162.04
    6059.85  137049  12673.8  1180.26
    6063.22  137409  12681.9  1191.6
    6066.68  138136  12757  1190.05
    6070.13  138944  12822.2  1169.62
    6073.75  136053  12574.5  1123.31
    6077.37  136944  12772.8  1155.11
    6081.15  137777  12979.1  1208.03
    6084.93  138524  13155.5  1261.07
    6088.8  139461  13331  1287.22
    6092.83  140379  13500.5  1262.49
    6096.86  141489  13699.1  1222.88
    6100.98  142373  13900.8  1203.39
    6105.18  143471  14136.4  1237.01
    6109.46  144471  14320.2  1308.75
    6113.83  145896  14522  1385.6
    6118.28  146931  14736.8  1429.57
    6122.74  148389  15058.7  1457.66
    6127.36  149476  15358.7  1485.87
    6131.99  150494  15612.7  1530.19
    6136.79  151681  15839.8  1566.63
    6141.59  153034  16046.9  1586.19
    6146.48  154777  16309.1  1604.86
    6151.46  156451  16561.3  1613.65
    6156.53  157867  16771.6  1626.55
    6161.6  159572  17074.9  1634.58
    6166.84  160780  17344.3  1632.72
    6172.1  162395  17653.8  1681.98
    6177.52  163750  17966.3  1759.35
    6182.95  165476  18344.8  1836.84
    6188.47  167165  18721.4  1895.45
    6194.08  168341  19039.1  1940.17
    6199.7  169963  19383.8  1988.01
    6205.5  171696  19713.6  2035.97
    6211.3  173094  20051.4  2091.04
    6217.2  173846  20336.3  2141.24
    6223.19  175378  20702.2  2173.54
    6229.2  176973  21091.2  2190.97
    6235.38  178058  21421.3  2193.51
    6241.56  178170  21588.4  2192.17
    6247.85  181522  22196.5  2254.95
    6254.23  183751  22694.8  2352.84
    6260.71  185286  23066  2454.85
    6267.2  187120  23483.3  2522.97
    6273.79  188725  23916.7  2577.22
    6280.48  189220  24168.1  2622.58
    6287.26  186392  24024.6  2616.05
    6294.06  187974  24461.2  2673.65
    6300.95  189576  24901.7  2742.36
    6307.95  190775  25296.4  2804.18
    6315.05  192539  25773.1  2863.13
    6322.16  194360  26259.8  2903.19
    6329.38  195776  26715.7  2946.37
    6336.69  197358  27201.5  3004.66
    6344.11  198991  27682.4  3074.07
    6351.55  200738  28194.4  3159.6
    6359.09  202436  28746.4  3249.24
    6366.65  203986  29265.5  3347.01
    6374.31  205459  29776.6  3432.88
    6382.07  206783  30271.8  3505.88
    6389.95  205720  30401.1  3531.99
    6397.84  205425  30658.4  3579.22
    6405.84  205742  31017.7  3629.56
    6413.95  206871  31510.1  3703.03
    6422.08  207738  31975.6  3780.61
    6430.32  209137  32519.1  3858.31
    6438.58  209926  32994.7  3917.12
    6446.95  210930  33526.3  3999.05
    6455.43  211808  34041  4090.1
    6463.93  213282  34643.7  4192.26
    6472.55  214289  35192.5  4284.54
    6481.28  214996  35679.3  4365.93
    6490.03  216250  36243.2  4467.45
    6498.9  217352  36821.2  4550.08
    6507.79  218519  37430.2  4648.83
    6516.8  219875  38077.3  4760.69
    6525.92  220946  38698.4  4872.67
    6535.07  221997  39303.5  4970.77
    6544.25  223611  40034.7  5081.98
    6553.54  223963  40548  5163.32
    6562.95  224997  41202.3  5270.76
    6572.4  226374  41891.8  5388.33
    6581.96  228115  42664.2  5519.02
    6591.55  229519  43390.7  5649.82
    6601.26  230967  44125.2  5784.73
    6611.09  232399  44897.9  5911.76
    6620.95  233602  45649.5  6041.91
    6630.85  234908  46412.2  6172.18
    6640.87  236094  47156  6308.56
    6650.92  237545  47974.8  6448.07
    6661.1  238507  48671.7  6584.68
    6671.31  239058  49321.6  6702.41
    6681.64  239245  49888.6  6809.26
    6692.01  239122  50416.6  6912.23
    6702.51  227888  48632.7  6698.31
    6713.04  244071  52602.9  7281.51
    6723.7  242383  52794.1  7342.83
    6734.4  242171  53344.3  7454.27
    6745.14  243175  54173.6  7612.82
    6756  237262  53404  7542.48
    6766.91  248569  56613.4  8050.27
    6777.94  250117  57613.9  8238.17
    6789.02  249886  58222.5  8370.19
    6800.23  248439  58540  8461.32
    6811.48  259930  61913.6  8993.58
    6822.77  254203  61250.4  8946.95
    6834.19  253744  61852.1  9078.44
    6845.66  254134  62638.9  9245.03
    6857.16  256400  63922.8  9470.76
    6868.81  252561  63661.7  9480.59
    6880.5  253949  64731.6  9700.54
    6892.33  253994  65481.6  9867.61
    6904.2  254453  66344.7  10049.8
    6916.11  254629  67145.8  10227.1
    6928.18  254527  67876  10401.5
    6940.28  254812  68727.2  10592.1
    6952.43  255299  69637.5  10794.7
    6964.62  256017  70630.9  10999.5
    6976.96  256528  71551.3  11203.4
    6989.35  256596  72371.7  11389.4
    7001.88  257231  73364.2  11602.5
    7014.47  259811  74925.8  11919.7
    7027.1  260280  75891.4  12127.1
    7039.77  260423  76738.1  12327.6
    7052.6  260495  77618.8  12538.2
    7065.48  260409  78441.6  12741.9
    7078.41  260317  79277.4  12941.7
    7091.39  259790  79973.3  13123.6
    7104.53  259984  80890.2  13335.7
    7111.06  259706  81231.5  13426.5