File: data/Cr/cro2_15K_002.xdi
# XDI/1.0
# Column.1: energy eV
# Column.2: i0
# Column.3: itrans
# Column.4: irefer
# Beamline.name: SSRL 2-3
# Beamline.notes: vert slits = 0.6mm
# Detector.I0: N2 15cm
# Detector.I1: N2 30cm
# Detector.I2: N2 15cm
# Element.edge: K
# Element.symbol: Cr
# Mono.d_spacing: 3.13550
# Mono.name: Si(111)
# Mono.notes: unfocused, detuned 75%, clockwise at E=5990eV
# Sample.formula: CrO2
# Sample.name: CrO2
# Sample.prep: powder on tape (4 layers)
# Sample.reference: Cr foil
# Sample.temperature: 15K
# Scan.start_time: 1997-04-18 13:47:10
# ///
#    Note: mono d_spacing is nominal!
#     exafs to K16
#     396  E XMU XMUR I0
#-------------
#   energy   i0   itrans  irefer
    5759.99  138774  8919.7  1128.3
    5780.01  137737  9186.7  1178.3
    5799.97  136451  9436.7  1223.3
    5820  135386  9707.7  1274.3
    5839.97  134144  9966.7  1326.3
    5860.02  132992  10236.7  1379.3
    5879.99  131746  10499.7  1431.3
    5899.97  130577  10769.7  1486.3
    5920.02  129168  11020.7  1539.3
    5939.99  127702  11258.7  1589.3
    5959.97  126314  11499.7  1640.3
    5970.49  125523  11622.7  1666.3
    5971.53  125235  11615.7  1667.3
    5972.49  124149  11535.7  1656.3
    5973.53  123904  11519.7  1655.3
    5974.5  125694  11702.7  1682.3
    5975.46  125915  11742.7  1690.3
    5976.51  125923  11765.7  1691.3
    5977.47  125879  11777.7  1693.3
    5978.52  126053  11815.7  1699.3
    5979.48  125984  11824.7  1699.3
    5980.53  125901  11833.7  1702.3
    5981.49  125907  11851.7  1705.3
    5982.46  126037  11880.7  1710.3
    5983.51  126420  11935.7  1716.3
    5984.48  125674  11879.7  1710.3
    5985.52  126178  11946.7  1716.3
    5986.49  124430  11799.7  1697.3
    5987.46  116903  11110.7  1595.3
    5988.51  112726  10697.7  1533.3
    5989.48  119425  11363.7  1620.3
    5990.53  122433  11670.7  1628.3
    5991.5  123219  11743.7  1559.3
    5992.47  123441  11753.7  1492.3
    5993.52  123330  11731.7  1438.3
    5994.49  123504  11739.7  1404.3
    5995.47  123492  11735.7  1380.3
    5996.51  123374  11738.7  1365.3
    5997.49  123518  11779.7  1369.3
    5998.54  123053  11749.7  1359.3
    5999.51  123097  11755.7  1328.3
    6000.49  122756  11686.7  1273.3
    6001.46  122309  11557.7  1209.3
    6002.51  120925  11271.7  1137.3
    6003.49  122935  11308.7  1109.3
    6004.47  123312  11174.7  1071.3
    6005.52  123139  11013.7  1033.3
    6006.5  122875  10867.7  1003.3
    6007.47  122819  10699.7   970.3
    6008.53  122657  10465.7   931.3
    6009.5  122912  10250.7   895.3
    6010.94  122552  9892.46   841.064
    6012.82  122594  9789.51   837.18
    6014.78  122460  9851.62   886.415
    6016.81  122413  10025.8   921.765
    6018.93  122672  10175   922.233
    6021.12  122702  10311.3   915.817
    6023.39  122766  10447.6   931.518
    6025.73  123013  10460   942.335
    6028.16  123210  10434.4   932.27
    6030.58  123520  10519.9   926.32
    6033.16  123759  10748.4   938.489
    6035.82  123967  10974   956.774
    6038.56  124448  11203.7   974.177
    6041.37  124756  11384.4   980.695
    6044.26  125193  11481.2   995.332
    6047.24  125648  11512  1005.08
    6050.29  126174  11604.9  1023.95
    6053.42  126482  11700.8  1051.94
    6056.56  127032  11766.8  1082.04
    6059.85  127525  11778.8  1101.26
    6063.22  127727  11776.9  1111.6
    6066.68  128381  11849  1110.05
    6070.13  129168  11914.2  1090.62
    6073.75  129781  11990.5  1072.31
    6077.37  130530  12169.8  1104.11
    6081.15  131195  12357.1  1152.03
    6084.93  132024  12536.6  1205.07
    6088.8  132908  12710  1231.22
    6092.83  133607  12851.5  1199.49
    6096.86  134513  13029.1  1165.88
    6100.98  135363  13216.8  1145.39
    6105.18  136399  13444.4  1177.01
    6109.46  137405  13627.2  1245.75
    6113.83  138432  13776  1315.6
    6118.28  139418  13983.8  1358.57
    6122.74  140517  14262.7  1378.66
    6127.36  141494  14542.7  1404.87
    6131.99  142609  14789.7  1447.19
    6136.79  143485  14973.8  1481.63
    6141.59  144654  15165.9  1498.18
    6146.48  145743  15361.1  1509.86
    6151.46  146849  15538.3  1510.65
    6156.53  148084  15729.6  1522.55
    6161.6  149619  16009.9  1529.58
    6166.84  150565  16250.3  1525.72
    6172.1  152250  16554.8  1574.97
    6177.52  153723  16874.3  1651.35
    6182.95  154584  17140.8  1716.84
    6188.47  155987  17473.4  1771.45
    6194.08  157465  17811.1  1814.17
    6199.7  158869  18117.8  1859.01
    6205.5  160356  18421.6  1902.97
    6211.3  161645  18720.4  1954.04
    6217.2  163179  19076.3  2010.24
    6223.19  164425  19402.3  2036.54
    6229.2  165831  19758.2  2052.97
    6235.38  167245  20104.3  2062.51
    6241.56  167241  20259.4  2055.17
    6247.85  170340  20822.5  2114.95
    6254.23  172369  21275.7  2203.84
    6260.71  174006  21652  2301.85
    6267.2  175461  22020.3  2364.98
    6273.79  176927  22409.7  2415.22
    6280.48  178503  22791.1  2471.58
    6287.26  180139  23217.6  2529.05
    6294.06  182135  23704.1  2589.65
    6300.95  183866  24152.7  2659.36
    6307.95  185759  24638.4  2730.19
    6315.05  186839  25017.1  2782.13
    6322.16  188348  25456.8  2819.19
    6329.38  189784  25903.7  2863.37
    6336.69  191309  26375.5  2917.66
    6344.11  192684  26800.4  2979.07
    6351.55  193992  27252.4  3054.6
    6359.09  195291  27744.4  3136.24
    6366.65  196986  28274.5  3237.01
    6374.31  198620  28793.6  3325.88
    6382.07  200192  29319.8  3400.88
    6389.95  201612  29810.1  3470.99
    6397.84  202811  30271.4  3540.22
    6405.84  204395  30822.7  3616.57
    6413.95  206238  31428.1  3698.03
    6422.08  207949  32007.6  3787.61
    6430.32  208903  32478.1  3858.3
    6438.58  210462  33074.7  3932.12
    6446.95  211584  33613.3  4011.05
    6455.43  212955  34212  4113.1
    6463.93  214203  34784.7  4214.26
    6472.55  215528  35365.5  4305.54
    6481.28  216681  35931.4  4402.94
    6490.03  217639  36470.2  4494.45
    6498.9  218910  37076.2  4588.08
    6507.79  217874  37297.2  4634.83
    6516.8  219506  37989.2  4751.69
    6525.92  221969  38858.4  4896.68
    6535.07  223517  39559.5  5010.77
    6544.25  223061  39899.7  5078.98
    6553.54  224501  40610  5188.31
    6562.95  225910  41329.3  5301.77
    6572.4  227077  41999.7  5425.33
    6581.96  227785  42575.2  5527.01
    6591.55  228408  43133.7  5627.82
    6601.26  229570  43816.2  5753.73
    6611.09  229518  44293.8  5839.76
    6620.95  230768  45040.5  5965.91
    6630.85  232137  45807.2  6099.17
    6640.87  231746  46222  6189.56
    6650.92  233327  47057.8  6330.06
    6661.1  233903  47696.7  6452.67
    6671.31  234529  48348.6  6580.41
    6681.64  231336  48192.6  6582.26
    6692.01  231195  48693.6  6682.23
    6702.51  222014  47337.7  6526.31
    6713.04  238959  51462.9  7125.51
    6723.7  237107  51612.1  7183.83
    6734.4  235944  51950.3  7272.27
    6745.14  237082  52793.7  7424.82
    6756  231114  52005  7356.48
    6766.91  240820  54836.4  7797.27
    6777.94  241592  55611.9  7959.17
    6789.02  240067  55889.4  8038.19
    6800.23  238075  56060  8105.32
    6811.48  252672  60152.6  8752.58
    6822.77  246420  59350.4  8674.95
    6834.19  245756  59846.1  8792.42
    6845.66  245910  60551.9  8945.04
    6857.16  245828  61224.7  9091.76
    6868.81  244290  61531.6  9188.59
    6880.5  245416  62530.6  9381.54
    6892.33  246041  63405.7  9558.62
    6904.2  246085  64149.7  9727.8
    6916.11  246488  64972.8  9911.1
    6928.18  245843  65535  10057.5
    6940.28  246263  66409.2  10244.1
    6952.43  246070  67101.6  10405.7
    6964.62  246272  67923.9  10592.5
    6976.96  244342  68134.3  10676.4
    6989.35  244845  69037.7  10872.4
    7001.88  244727  69761.3  11043.5
    7014.47  245034  70622.8  11229.7
    7027.1  245256  71479.4  11423.1
    7039.77  245502  72340.1  11619.6
    7052.6  245910  73237.8  11824.2
    7065.48  245488  73912.6  11985.9
    7078.41  245686  74780.4  12196.7
    7091.39  245477  75532.3  12376.6
    7104.53  245437  76329.3  12573.7
    7111.06  245275  76685.5  12655.5