File: data/Cr/cro2_rt_002.xdi
# XDI/1.0
# Column.1: energy eV
# Column.2: i0
# Column.3: itrans
# Column.4: irefer
# Beamline.name: SSRL 2-3
# Beamline.notes: vert slits = 0.6mm
# Detector.I0: N2 15cm
# Detector.I1: N2 30cm
# Detector.I2: N2 15cm
# Element.edge: K
# Element.symbol: Cr
# Mono.d_spacing: 3.13550
# Mono.name: Si(111)
# Mono.notes: unfocused, detuned 75%, clockwise at E=5990eV
# Sample.formula: CrO2
# Sample.name: CrO2
# Sample.prep: powder on tape (4 layers)
# Sample.reference: Cr foil
# Sample.temperature: room temp
# Scan.start_time: 1997-04-17 19:39:50
# ///
#    Note: mono d_spacing is nominal!
#     exafs to K16
#     396  E XMU XMUR I0
#-------------
#   energy   i0   itrans  irefer
    5759.99  25429.9  22252.5  2825.7
    5780.01  25379.9  22963.5  2951.7
    5799.97  25288.9  23664.5  3081.7
    5820  25171.9  24352.5  3213.7
    5839.97  25098.9  25075.5  3348.7
    5860.02  25012.9  25815.5  3488.7
    5879.99  24928.9  26562.5  3635.7
    5899.97  24816.9  27285.5  3780.7
    5920.02  24701.9  28013.5  3922.7
    5939.99  24588.9  28741.5  4070.7
    5959.97  24488.9  29485.5  4222.7
    5970.49  24413.9  29839.5  4294.7
    5971.53  24265.9  29703.5  4276.7
    5972.49  24047.9  29476.5  4244.7
    5973.53  24222.9  29726.5  4283.7
    5974.5  24433.9  30034.5  4328.7
    5975.46  24415.9  30055.5  4334.7
    5976.51  24437.9  30121.5  4346.7
    5977.47  24416.9  30138.5  4348.7
    5978.52  24435.9  30191.5  4359.7
    5979.48  24412.9  30208.5  4358.7
    5980.53  24422.9  30273.5  4371.7
    5981.49  24412.9  30290.5  4376.7
    5982.46  24440.9  30364.5  4389.7
    5983.51  24444.9  30414.5  4394.7
    5984.48  24461.9  30484.5  4402.7
    5985.52  24358.9  30393.5  4388.7
    5986.49  23673.9  29576.5  4267.7
    5987.46  21286.9  26624.5  3833.7
    5988.51  22744.9  28484.5  4087.7
    5989.48  23645.9  29648.5  4218.7
    5990.53  23996.9  30099.5  4128.7
    5991.5  24102.9  30211.5  3926.7
    5992.47  24126.9  30186.5  3784.7
    5993.52  24158.9  30233.5  3676.7
    5994.49  24164.9  30215.5  3593.7
    5995.47  24172.9  30225.5  3540.7
    5996.51  24161.9  30272.5  3531.7
    5997.49  24168.9  30337.5  3536.7
    5998.54  24149.9  30336.5  3496.7
    5999.51  24164.9  30313.5  3387.7
    6000.49  24095.9  30086.5  3232.7
    6001.46  23924.9  29560.5  3058.7
    6002.51  23790.9  28983.5  2898.7
    6003.49  24073.9  28923.5  2823.7
    6004.47  24104.9  28576.5  2730.7
    6005.52  24136.9  28262.5  2645.7
    6006.5  24105.9  27886.5  2569.7
    6007.47  24113.9  27435.5  2483.7
    6008.53  24091.9  26821.5  2378.7
    6009.5  24114.9  26220.5  2287.7
    6010.94  24084.7  25551.3  2174.46
    6012.82  24090.8  25415.3  2206.58
    6014.78  24097  25690.4  2341.81
    6016.81  24138.3  26189.5  2424.16
    6018.93  24131.7  26449.7  2403.62
    6021.12  24183.2  26876.9  2397.2
    6023.39  24210.8  27134.1  2433.9
    6025.73  24280.6  27173.4  2462.71
    6028.16  24322.4  27150.8  2425.63
    6030.58  24396.3  27481.1  2420.68
    6033.16  24457.4  28060.6  2451.84
    6035.82  24564.5  28670  2503.11
    6038.56  24633.8  29202.5  2539.5
    6041.37  24702.1  29617.1  2554.01
    6044.26  24835.6  29860.6  2590.63
    6047.24  24915.1  29953.3  2621.37
    6050.29  25048.8  30234.9  2678.22
    6053.42  25173.5  30527.6  2760.19
    6056.56  25312.4  30691.4  2838.28
    6059.85  25441.4  30762.2  2887.48
    6063.22  25474.4  30771  2908.8
    6066.68  25653.6  31004.9  2900.23
    6070.13  25804.9  31156.8  2850.78
    6073.75  26005.3  31516.8  2829.44
    6077.37  26195.8  32006.8  2920.22
    6081.15  26354.4  32474.8  3053.12
    6084.93  26541.1  32941.9  3184.13
    6088.8  26770.9  33428  3236.26
    6092.83  26964.8  33861.2  3161.5
    6096.86  27175.8  34360.4  3066.86
    6100.98  27418.9  34933.7  3037.34
    6105.18  27651.1  35519  3137.93
    6109.46  27867.4  35976.3  3323.64
    6113.83  28100.8  36417.7  3502.46
    6118.28  28381.4  37085.1  3617.4
    6122.74  28639  37823.6  3676.46
    6127.36  28891.7  38568.1  3751.63
    6131.99  29162.6  39246.6  3866.91
    6136.79  29437.5  39825.2  3956.32
    6141.59  29729.6  40382.8  4008.83
    6146.48  30006.7  40949.5  4046.47
    6151.46  30304  41524.2  4056.22
    6156.53  30606.3  42105.9  4096.09
    6161.6  30938.8  42852.7  4116.07
    6166.84  31249.3  43604.6  4117.17
    6172.1  31581  44386.5  4253.38
    6177.52  31923.8  45292.4  4467.71
    6182.95  32260.7  46191.3  4654.15
    6188.47  32585.6  47084.3  4792.72
    6194.08  32939.7  48003.4  4914.39
    6199.7  33292.9  48894.5  5042.18
    6205.5  33659.2  49760.6  5162.1
    6211.3  34019.6  50697.8  5319.12
    6217.2  34383.1  51683  5471.26
    6223.19  34747.7  52674.2  5548.52
    6229.2  35152.4  53744.5  5601.89
    6235.38  35409.2  54565.9  5613.38
    6241.56  35012.1  54343.3  5534.98
    6247.85  36181.1  56646.7  5782.7
    6254.23  36639.2  57850.1  6036.53
    6260.71  37068.5  58977.6  6310.48
    6267.2  37472.8  60081.2  6482.56
    6273.79  37861.2  61221.8  6626.74
    6280.48  38298.8  62393.4  6797.04
    6287.26  38684.4  63588.1  6951.45
    6294.06  39136.1  64915.8  7119.98
    6300.95  39536  66124.5  7316.63
    6307.95  39929.9  67368.3  7496.4
    6315.05  40446  68827.2  7676.27
    6322.16  40869.1  70166.1  7790.26
    6329.38  41290.4  71527  7922.37
    6336.69  41741.8  72970.9  8090.6
    6344.11  42191.2  74401  8296.94
    6351.55  42643.8  75899  8540.4
    6359.09  43079.5  77421.1  8784.98
    6366.65  43529.3  78934.2  9065.66
    6374.31  43980.1  80481.4  9318.47
    6382.07  44440.1  82079.6  9534.39
    6389.95  44855.2  83607.9  9755.43
    6397.84  45359.4  85309.2  10001.6
    6405.84  45814.7  86985.5  10224.8
    6413.95  46269.1  88643.9  10467.2
    6422.08  46709.6  90328.3  10728.7
    6430.32  47170.2  92089.8  10977.3
    6438.58  47599.9  93847.3  11196.1
    6446.95  48054.7  95691.8  11456.9
    6455.43  48486.7  97529.4  11773.9
    6463.93  48958.7  99433  12093
    6472.55  49387.8  101272  12385.2
    6481.28  49820  103151  12682.5
    6490.03  50298.4  105162  13002.9
    6498.9  50760.8  107193  13304.5
    6507.79  51179.4  109172  13610.1
    6516.8  51636  111237  13962.9
    6525.92  52064.8  113297  14323.8
    6535.07  52525.6  115449  14668.8
    6544.25  52922.6  117471  14988.9
    6553.54  53252.6  119432  15295.1
    6562.95  53712.8  121688  15656.5
    6572.4  54171.1  123934  16036
    6581.96  54590.4  126133  16406.6
    6591.55  54983.9  128273  16787.3
    6601.26  55405.5  130531  17175.1
    6611.09  55843.2  132927  17577
    6620.95  56268  135289  17981.1
    6630.85  56657.8  137596  18374.2
    6640.87  57084.8  140018  18799.5
    6650.92  57477.9  142434  19232.9
    6661.1  57839.1  144773  19662.4
    6671.31  58222.4  147182  20085
    6681.64  58540.8  149428  20489.8
    6692.01  58743.4  151462  20872.7
    6702.51  55962  145706  20174.6
    6713.04  60523.7  159184  22140.7
    6723.7  60544.5  160829  22481.9
    6734.4  60472.4  162345  22812.3
    6745.14  61022.5  165487  23378.7
    6756  59497.6  163023  23161.2
    6766.91  61947.9  171484  24490.9
    6777.94  62389.2  174498  25060.7
    6789.02  62419.6  176386  25468.6
    6800.23  62028.2  177067  25710.6
    6811.48  64749.8  186824  27259.8
    6822.77  64042.6  186631  27383
    6834.19  64189.5  189069  27885.4
    6845.66  64376.4  191538  28403.9
    6857.16  64616.5  194221  28931.5
    6868.81  64817.7  196890  29488.2
    6880.5  65016.9  199559  30023
    6892.33  65280.3  202454  30635.9
    6904.2  65522.8  205342  31236
    6916.11  65670.4  207891  31806.2
    6928.18  65765.1  210363  32362.5
    6940.28  65980.9  213287  32992.9
    6952.43  66225.8  216263  33655.4
    6964.62  66325.8  218804  34228.1
    6976.96  66489.9  221607  34829.8
    6989.35  66690.1  224564  35470.7
    7001.88  66899.4  227524  36114.7
    7014.47  67023.8  230223  36734.8
    7027.1  67180.3  233101  37381
    7039.77  67325  235904  38030.3
    7052.6  67430.7  238648  38665.8
    7065.48  67527.5  241375  39312.4
    7078.41  67690.5  244373  40000
    7091.39  67543.5  246275  40517.8
    7104.53  67611.6  248941  41166.8
    7111.06  67722.5  250617  41552.5