File: data/Cr/cro2_rt_001.xdi
# XDI/1.0
# Column.1: energy eV
# Column.2: i0
# Column.3: itrans
# Column.4: irefer
# Beamline.name: SSRL 2-3
# Beamline.notes: vert slits = 0.6mm
# Detector.I0: N2 15cm
# Detector.I1: N2 30cm
# Detector.I2: N2 15cm
# Element.edge: K
# Element.symbol: Cr
# Mono.d_spacing: 3.13550
# Mono.name: Si(111)
# Mono.notes: unfocused, detuned 75%, clockwise at E=5990eV
# Sample.formula: CrO2
# Sample.name: CrO2
# Sample.prep: powder on tape (4 layers)
# Sample.reference: Cr foil
# Sample.temperature: room temp
# Scan.start_time: 1997-04-17 19:39:50
# ///
#    Note: mono d_spacing is nominal!
#     exafs to K16
#     396  E XMU XMUR I0
#-------------
#   energy   i0   itrans  irefer
    5759.99  25548.9  22358.5  2841.7
    5780.01  25476.9  23058.5  2966.7
    5799.97  25374.9  23741.5  3093.7
    5820  25274.9  24444.5  3221.7
    5839.97  25190.9  25158.5  3357.7
    5860.02  25101.9  25899.5  3498.7
    5879.99  24990.9  26634.5  3638.7
    5899.97  24859.9  27329.5  3780.7
    5920.02  24751.9  28074.5  3928.7
    5939.99  24639.9  28804.5  4076.7
    5959.97  24550.9  29560.5  4230.7
    5970.49  24436.9  29871.5  4295.7
    5971.53  24342.9  29801.5  4288.7
    5972.49  24090.9  29535.5  4251.7
    5973.53  24259.9  29782.5  4285.7
    5974.5  24462.9  30071.5  4330.7
    5975.46  24471.9  30116.5  4340.7
    5976.51  24473.9  30156.5  4345.7
    5977.47  24480.9  30215.5  4354.7
    5978.52  24444.9  30217.5  4356.7
    5979.48  24472.9  30285.5  4368.7
    5980.53  24472.9  30330.5  4374.7
    5981.49  24485.9  30385.5  4384.7
    5982.46  24495.9  30437.5  4394.7
    5983.51  24519.9  30504.5  4401.7
    5984.48  24497.9  30521.5  4402.7
    5985.52  24436.9  30492.5  4400.7
    5986.49  23751.9  29660.5  4276.7
    5987.46  21385.9  26739.5  3847.7
    5988.51  22748.9  28492.5  4086.7
    5989.48  23720.9  29734.5  4224.7
    5990.53  24050.9  30177.5  4140.7
    5991.5  24157.9  30287.5  3937.7
    5992.47  24186.9  30266.5  3792.7
    5993.52  24209.9  30300.5  3681.7
    5994.49  24216.9  30273.5  3596.7
    5995.47  24228.9  30291.5  3545.7
    5996.51  24204.9  30314.5  3529.7
    5997.49  24213.9  30384.5  3537.7
    5998.54  24212.9  30405.5  3501.7
    5999.51  24189.9  30337.5  3389.7
    6000.49  24153.9  30148.5  3239.7
    6001.46  23948.9  29601.5  3060.7
    6002.51  23827.9  29051.5  2901.7
    6003.49  24093.9  28965.5  2823.7
    6004.47  24174.9  28657.5  2735.7
    6005.52  24167.9  28309.5  2648.7
    6006.5  24160.9  27963.5  2571.7
    6007.47  24148.9  27487.5  2484.7
    6008.53  24156.9  26914.5  2385.7
    6009.5  24138.9  26267.5  2287.7
    6010.94  24145.7  25617.3  2175.46
    6012.82  24130.8  25453.3  2206.58
    6014.78  24148  25738.4  2340.81
    6016.81  24166.3  26209.5  2423.16
    6018.93  24203.7  26524.7  2408.62
    6021.12  24217.2  26900.9  2394.2
    6023.39  24265.8  27193.1  2434.9
    6025.73  24309.6  27203.4  2459.71
    6028.16  24377.4  27200.8  2426.64
    6030.58  24449.3  27519.1  2419.68
    6033.16  24515.4  28117.6  2453.84
    6035.82  24596.5  28701  2502.11
    6038.56  24667.8  29241.5  2536.5
    6041.37  24777.1  29694.1  2557.01
    6044.26  24870.6  29897.6  2588.63
    6047.24  25000.1  30045.3  2623.37
    6050.29  25114.8  30311.9  2676.22
    6053.42  25247.5  30608.6  2763.19
    6056.56  25371.4  30758.4  2835.28
    6059.85  25520.4  30846.2  2889.48
    6063.22  25591.4  30897  2917.79
    6066.68  25756.6  31122.9  2907.23
    6070.13  25874.9  31253.8  2854.78
    6073.75  26113.3  31639.8  2835.44
    6077.37  26269.8  32099.8  2923.22
    6081.15  26421.4  32579.8  3057.12
    6084.93  26651.1  33082.9  3191.13
    6088.8  26843.9  33521  3244.26
    6092.83  27060.8  33986.2  3171.5
    6096.86  27289.8  34501.4  3076.87
    6100.98  27495.9  35039.7  3042.34
    6105.18  27653.1  35530  3131.93
    6109.46  27879.4  36006.3  3319.64
    6113.83  28138.8  36487.7  3501.46
    6118.28  28367.4  37072.1  3610.4
    6122.74  28636  37820.6  3670.46
    6127.36  28907.7  38601.1  3749.63
    6131.99  29197.6  39295.6  3865.92
    6136.79  29472.5  39877.2  3959.32
    6141.59  29737.6  40393.8  4003.83
    6146.48  30050.7  41015.5  4049.47
    6151.46  30334  41564.2  4057.22
    6156.53  30669.3  42202  4102.09
    6161.6  30971.8  42909.7  4113.07
    6166.84  31287.3  43662.6  4114.17
    6172.1  31607  44411.5  4249.38
    6177.52  31935.8  45286.4  4457.71
    6182.95  32269.7  46188.3  4641.16
    6188.47  32572.6  47064.3  4776.71
    6194.08  32898.7  47943.4  4892.39
    6199.7  33270.9  48841.5  5024.19
    6205.5  33611.2  49681.6  5140.1
    6211.3  33971.6  50615.8  5306.12
    6217.2  34347.1  51635  5456.26
    6223.19  34728.7  52640.2  5538.52
    6229.2  35097.4  53677.5  5584.89
    6235.38  35365.2  54495.9  5597.38
    6241.56  35022.1  54372.3  5531.98
    6247.85  36159.1  56632.7  5770.7
    6254.23  36579.2  57784.1  6020.54
    6260.71  36980.5  58841.6  6289.49
    6267.2  37392.8  59979.2  6463.56
    6273.79  37828.2  61175.8  6614.74
    6280.48  38244.8  62320.4  6781.04
    6287.26  38633.4  63509.1  6930.45
    6294.06  39090.1  64819.8  7098.98
    6300.95  39438  65957.5  7287.63
    6307.95  39880.9  67289.3  7477.39
    6315.05  40327  68611.2  7639.27
    6322.16  40753.1  69946.1  7761.27
    6329.38  41191.4  71339  7896.38
    6336.69  41638.8  72746.9  8062.6
    6344.11  42073.2  74171  8265.94
    6351.55  42538.8  75689  8507.4
    6359.09  42949.5  77165.1  8747.97
    6366.65  43437.3  78756.2  9028.66
    6374.31  43903.1  80330.4  9290.47
    6382.07  44326.1  81870.6  9499.39
    6389.95  44740.2  83372.9  9712.42
    6397.84  45252.4  85080.2  9962.58
    6405.84  45690.7  86710.5  10181.9
    6413.95  46139.1  88398.9  10425.2
    6422.08  46609.6  90115.3  10692.7
    6430.32  47054.2  91841.8  10938.4
    6438.58  47476.9  93568.3  11154.1
    6446.95  47936.7  95447.8  11428.9
    6455.43  48390.7  97319.4  11746.9
    6463.93  48833.7  99186  12065
    6472.55  49272.8  101051  12352.2
    6481.28  49702  102940  12659.5
    6490.03  50174.4  104915  12980.9
    6498.9  50609.8  106879  13265.5
    6507.79  51044.4  108868  13578.1
    6516.8  51434  110814  13915.9
    6525.92  51905.8  112935  14270.8
    6535.07  52347.6  115060  14613.8
    6544.25  52678.6  116955  14923.9
    6553.54  53067.6  119018  15244.2
    6562.95  53495.8  121204  15583.5
    6572.4  53970.1  123477  15967
    6581.96  54322.4  125501  16329.5
    6591.55  54795.9  127869  16733.3
    6601.26  55164.5  129992  17106.1
    6611.09  55590.2  132309  17490
    6620.95  56058  134785  17902
    6630.85  56400.8  136971  18282.2
    6640.87  56816.8  139358  18704.5
    6650.92  57155.9  141600  19109.9
    6661.1  57550.1  144019  19543.4
    6671.31  57878.4  146279  19960
    6681.64  58238.8  148614  20374.8
    6692.01  58430.4  150615  20739.6
    6702.51  55711  145036  20058.6
    6713.04  60231.7  158388  22014.7
    6723.7  60159.5  159802  22329.9
    6734.4  60124.4  161324  22655.3
    6745.14  60627.5  164383  23213.7
    6756  58895.6  161300  22908.2
    6766.91  61535.9  170277  24304.9
    6777.94  62003.2  173387  24881.7
    6789.02  61995.6  175156  25278.6
    6800.23  61600.2  175864  25514.6
    6811.48  64331.8  185542  27066.8
    6822.77  63548.6  185199  27160
    6834.19  63678.5  187506  27630.4
    6845.66  63896.4  190100  28148.9
    6857.16  64114.5  192732  28684.5
    6868.81  64192.7  195038  29180.2
    6880.5  64442.9  197764  29739
    6892.33  64532.3  200107  30254.9
    6904.2  64672.8  202732  30805
    6916.11  64828.4  205316  31367.2
    6928.18  64868.1  207543  31895.5
    6940.28  65087.9  210382  32500.9
    6952.43  65239.8  213071  33114.4
    6964.62  65405.8  215807  33722
    6976.96  65597.9  218636  34340.8
    6989.35  65798.1  221488  34974.7
    7001.88  65887.4  224054  35563.7
    7014.47  66057.8  226917  36200.8
    7027.1  66121.3  229445  36792
    7039.77  66333  232446  37464.4
    7052.6  66400.7  235052  38081.8
    7065.48  66445.5  237576  38687.3
    7078.41  66556.5  240344  39336.1
    7091.39  66568.5  242748  39937.8
    7104.53  66608.6  245312  40573.8
    7111.06  66624.5  246583  40878.5