File: data/Cr/k2cro4_15K_003.xdi
# XDI/1.0
# Column.1: energy eV
# Column.2: i0
# Column.3: itrans
# Column.4: irefer
# Beamline.name: SSRL 2-3
# Beamline.notes: vert slits = 0.6mm
# Detector.I0: N2 15cm
# Detector.I1: N2 30cm
# Detector.I2: N2 15cm
# Element.edge: K
# Element.symbol: Cr
# Mono.d_spacing: 3.13550
# Mono.name: Si(111)
# Mono.notes: unfocused, detuned 75%, clockwise at E=5990eV
# Sample.formula: K2CrO4
# Sample.name: K2CrO4
# Sample.prep: powder on tape (4 layers)
# Sample.reference: Cr foil
# Sample.temperature: 15K
# Scan.start_time: 1997-04-18 11:01:58
# ///
#    Note: mono d_spacing is nominal!
#     exafs to K16
#     396  E XMU XMUR I0
#-------------
#   energy   i0   itrans  irefer
    5759.99  170962  3339.7   427.3
    5780.01  169659  3477.7   449.3
    5799.97  168303  3614.7   473.3
    5820  166851  3751.7   495.3
    5839.97  165711  3904.7   523.3
    5860.02  164380  4052.7   550.3
    5879.99  163055  4207.7   578.3
    5899.97  161514  4355.7   604.3
    5920.02  160154  4515.7   634.301
    5939.99  158561  4663.7   663.3
    5959.97  157194  4821.7   693.3
    5970.49  156176  4890.7   705.3
    5971.53  155723  4888.7   706.3
    5972.49  153714  4831.7   697.3
    5973.53  154758  4870.7   703.3
    5974.5  156256  4927.7   713.3
    5975.46  156324  4939.7   715.3
    5976.51  156214  4945.7   716.3
    5977.47  156146  4951.7   715.3
    5978.52  156116  4955.7   716.299
    5979.48  156038  4964.7   717.3
    5980.53  156161  4977.7   719.3
    5981.49  155834  4976.7   719.3
    5982.46  156073  4990.7   722.3
    5983.51  156001  4995.7   722.3
    5984.48  156211  5007.7   726.3
    5985.52  155991  5010.7   725.3
    5986.49  152732  4913.7   712.3
    5987.46  139798  4496.7   651.3
    5988.51  142924  4594.7   664.3
    5989.48  149908  4817.7   691.3
    5990.53  152538  4884.7   679.3
    5991.5  153222  4867.7   640.3
    5992.47  153399  4766.7   604.3
    5993.52  153616  4399.7   541.3
    5994.49  153452  3317.7   401.3
    5995.47  153662  2561.7   307.3
    5996.51  153516  3959.7   466.3
    5997.49  153565  4556.7   534.3
    5998.54  153233  4708.7   547.3
    5999.51  153138  4709.7   532.3
    6000.49  152848  4616.7   502.3
    6001.46  151687  4427.7   463.3
    6002.51  150615  4275.7   431.3
    6003.49  152841  4338.7   427.3
    6004.47  153213  4388.7   423.3
    6005.52  152783  4368.7   411.3
    6006.5  152765  4265.7   395.3
    6007.47  152638  4094.7   375.3
    6008.53  152608  3752.7   337.3
    6009.5  152423  3281.7   289.3
    6010.94  152306  2803.46   241.064
    6012.82  152233  2643.51   232.181
    6014.78  152132  2691.62   246.415
    6016.81  152228  2706.78   254.765
    6018.93  152252  2560   236.233
    6021.12  152401  2517.27   226.817
    6023.39  152557  2442.6   219.518
    6025.73  152827  2394.98   218.335
    6028.16  153149  2409.42   217.27
    6030.58  153188  2370.9   212.321
    6033.16  153570  2386.45   213.49
    6035.82  153911  2399.05   212.774
    6038.56  154272  2334.7   207.176
    6041.37  154850  2285.41   199.695
    6044.26  155347  2356.17   206.331
    6047.24  155824  2523.98   224.083
    6050.29  156646  2678.86   239.952
    6053.42  157242  2785.78   253.938
    6056.56  157840  2857.76   267.041
    6059.85  158519  2953.79   280.26
    6063.22  159066  3074.88   294.597
    6066.68  159616  3175.02   300.05
    6070.13  160584  3252.22   301.621
    6073.75  161465  3253.47   294.307
    6077.37  162359  3241.78   299.111
    6081.15  163323  3226.14   306.031
    6084.93  164507  3239.55   317.069
    6088.8  165534  3285.02   322.223
    6092.83  166595  3374.54   319.494
    6096.86  167605  3449.12   311.882
    6100.98  169065  3489.76   308.387
    6105.18  170197  3508.44   315.008
    6109.46  171556  3493.18   328.746
    6113.83  172680  3508.98   343.601
    6118.28  174035  3545.83   351.573
    6122.74  175595  3557.73   350.662
    6127.36  176963  3585.69   353.868
    6131.99  178495  3679.7   367.19
    6136.79  179928  3808.77   385.629
    6141.59  181316  3950.89   400.185
    6146.48  183021  4055.07   407.858
    6151.46  184487  4146.3   412.648
    6156.53  185929  4243.58   420.554
    6161.6  187556  4328.92   423.578
    6166.84  188962  4413.32   424.718
    6172.1  190724  4524.76   439.975
    6177.52  192270  4658.27   464.349
    6182.95  193993  4794.83   489.839
    6188.47  195801  4890.43   501.447
    6194.08  197528  4991.1   515.17
    6199.7  199275  5078.82   529.012
    6205.5  201010  5175.6   545.97
    6211.3  202937  5273.42   560.044
    6217.2  204936  5365.31   575.236
    6223.19  206781  5482.25   582.544
    6229.2  208829  5600.24   590.97
    6235.38  210133  5700.28   595.512
    6241.56  208580  5711.38   593.171
    6247.85  214333  5933.54   615.946
    6254.23  216268  6064.75   642.839
    6260.71  218528  6215.01   676.848
    6267.2  220404  6367.33   697.974
    6273.79  222341  6517.71   717.218
    6280.48  224230  6668.14   737.577
    6287.26  226350  6816.61   756.053
    6294.06  228338  6990.15   777.646
    6300.95  230133  7163.74   804.357
    6307.95  232279  7357.39   831.185
    6315.05  234279  7535.09   855.128
    6322.16  236334  7693.84   870.188
    6329.38  238629  7883.65   889.366
    6336.69  240669  8086.51   909.661
    6344.11  242821  8271.43   936.072
    6351.55  244671  8450.4   963.6
    6359.09  246466  8623.43   992.244
    6366.65  248376  8796.51  1023.01
    6374.31  250492  8988.64  1050.88
    6382.07  252489  9199.83  1077.88
    6389.95  253991  9392.07  1104.99
    6397.84  256051  9601.37  1134.22
    6405.84  257817  9798.72  1158.57
    6413.95  259838  10019.1  1187.03
    6422.08  261520  10221.6  1219.61
    6430.32  263380  10449.1  1256.3
    6438.58  265068  10694.7  1289.12
    6446.95  266788  10940.3  1320.05
    6455.43  268474  11184  1360.09
    6463.93  270229  11437.7  1402.26
    6472.55  271965  11699.5  1440.54
    6481.28  273722  11963.3  1479.93
    6490.03  275257  12225.2  1520.45
    6498.9  276978  12502.2  1564.08
    6507.79  278994  12790.2  1601.83
    6516.8  280041  13042.3  1647.69
    6525.92  281934  13349.4  1699.67
    6535.07  283440  13625.5  1742.77
    6544.25  284671  13895.8  1781.98
    6553.54  285652  14154  1818.32
    6562.95  286854  14439.4  1863.77
    6572.4  288355  14737.8  1918.33
    6581.96  289432  15032.2  1972.01
    6591.55  290651  15323.7  2014.81
    6601.26  291757  15623.2  2066.73
    6611.09  293138  15947.8  2115.76
    6620.95  294295  16260.5  2168.91
    6630.85  295363  16576.2  2223.18
    6640.87  295860  16867  2272.56
    6650.92  296834  17191.8  2331.06
    6661.1  297507  17508.7  2388.68
    6671.31  298414  17842.6  2443.41
    6681.64  298870  18159.6  2498.26
    6692.01  298255  18409.6  2543.23
    6702.51  284215  17855.7  2482.31
    6713.04  307589  19601.9  2736.51
    6723.7  305281  19772.1  2777.83
    6734.4  302953  19951.3  2818.26
    6745.14  304792  20393.6  2896.81
    6756  299416  20373  2912.48
    6766.91  308673  21318.4  3063.27
    6777.94  309553  21719.9  3137.17
    6789.02  307825  21962.4  3193.19
    6800.23  303619  22004  3215.33
    6811.48  320922  23613.6  3464.58
    6822.77  313515  23460.3  3458.94
    6834.19  311911  23727.1  3517.43
    6845.66  311858  24116.9  3591.04
    6857.16  311538  24481.7  3664.75
    6868.81  311288  24873.7  3744.59
    6880.5  311669  25309.6  3823.54
    6892.33  311306  25714.6  3909.61
    6904.2  311590  26169.7  3998.8
    6916.11  311393  26580.8  4083.1
    6928.18  310633  26960  4161.52
    6940.28  310771  27422.2  4255.06
    6952.43  310441  27864.5  4346.72
    6964.62  310541  28308.9  4436.49
    6976.96  310519  28781.3  4528.38
    6989.35  310408  29235.7  4629.38
    7001.88  310108  29676.2  4724.5
    7014.47  310007  30149.8  4818.74
    7027.1  309832  30605.4  4924.09
    7039.77  309416  31053.1  5023.57
    7052.6  309283  31529.8  5126.15
    7065.48  309568  32048.6  5233.86
    7078.41  309095  32503.4  5343.69
    7091.39  309044  33011.3  5457.62
    7104.53  308644  33489.3  5578.68
    7111.06  308405  33740.5  5632.5