File: data/Cr/k2cr2o7_rt_001.xdi
# XDI/1.0
# Column.1: energy eV
# Column.2: i0
# Column.3: itrans
# Column.4: irefer
# Beamline.name: SSRL 2-3
# Beamline.notes: vert slits = 0.6mm
# Detector.I0: N2 15cm
# Detector.I1: N2 30cm
# Detector.I2: N2 15cm
# Element.edge: K
# Element.symbol: Cr
# Mono.d_spacing: 3.13550
# Mono.name: Si(111)
# Mono.notes: unfocused, detuned 75%, clockwise at E=5990eV
# Sample.formula: K2Cr2O7
# Sample.name: K2Cr2O7
# Sample.prep: powder on tape (6 layers)
# Sample.reference: Cr foil
# Sample.temperature: room temp
# Scan.start_time: 1997-04-17 18:36:45
# ///
#    Note: mono d_spacing is nominal!
#     exafs to K16
#     396  E XMU XMUR I0
#-------------
#   energy   i0   itrans  irefer
    5759.99  25610.9  8938.5  1136.7
    5780.01  25547.9  9300.5  1197.7
    5799.97  25445.9  9666.5  1260.7
    5820  25364.9  10046.5  1326.7
    5839.97  25270.9  10430.5  1393.7
    5860.02  25176.9  10819.5  1463.7
    5879.99  25073.9  11213.5  1536.7
    5899.97  24956.9  11611.5  1611.7
    5920.02  24853.9  12022.5  1685.7
    5939.99  24736.9  12432.5  1763.7
    5959.97  24623.9  12843.5  1841.7
    5970.49  24539.9  13038.5  1879.7
    5971.53  24437.9  12999.5  1872.7
    5972.49  24190.9  12889.5  1859.7
    5973.53  24308.9  12971.5  1872.7
    5974.5  24557.9  13125.5  1894.7
    5975.46  24568.9  13154.5  1900.7
    5976.51  24558.9  13167.5  1902.7
    5977.47  24555.9  13186.5  1905.7
    5978.52  24567.9  13212.5  1911.7
    5979.48  24554.9  13219.5  1912.7
    5980.53  24573.9  13253.5  1917.7
    5981.49  24569.9  13270.5  1919.7
    5982.46  24585.9  13299.5  1922.7
    5983.51  24587.9  13311.5  1926.7
    5984.48  24599.9  13327.5  1925.7
    5985.52  24527.9  13301.5  1922.7
    5986.49  23931.9  12984.5  1878.7
    5987.46  21558.9  11696.5  1688.7
    5988.51  22729.9  12327.5  1774.7
    5989.48  23737.9  12848.5  1834.7
    5990.53  24125.9  12994.5  1794.7
    5991.5  24212.9  12888.5  1686.7
    5992.47  24262.9  12460.5  1571.7
    5993.52  24288.9  11087.5  1357.7
    5994.49  24299.9  8603.5  1030.7
    5995.47  24311.9  6789.5   802.699
    5996.51  24299.9  10048.5  1173.7
    5997.49  24299.9  11712.5  1368.7
    5998.54  24282.9  12230.5  1415.7
    5999.51  24271.9  12301.5  1383.7
    6000.49  24233.9  12103.5  1309.7
    6001.46  24045.9  11681.5  1214.7
    6002.51  23895.9  11214.5  1127.7
    6003.49  24161.9  11035.5  1082.7
    6004.47  24239.9  10875.5  1043.7
    6005.52  24247.9  10606.5   999.7
    6006.5  24223.9  10122.5   936.7
    6007.47  24227.9  9583.5   872.7
    6008.53  24204.9  8894.5   792.7
    6009.5  24221.9  8157.5   715.7
    6010.94  24201.7  7173.25   615.465
    6012.82  24209.8  6520.3   568.581
    6014.78  24196  6270.38   574.812
    6016.81  24218.3  6116.51   569.16
    6018.93  24259.7  6059.67   555.624
    6021.12  24272.2  6090.88   547.203
    6023.39  24325.8  6039.13   544.897
    6025.73  24368.6  5889.42   535.708
    6028.16  24462.4  5781.76   522.635
    6030.58  24514.3  5694.14   506.678
    6033.16  24598.4  5645.55   498.837
    6035.82  24668.5  5652.01   499.111
    6038.56  24738.8  5691.51   500.501
    6041.37  24837.1  5792.05   504.008
    6044.26  24930.6  5982.64   523.63
    6047.24  25048.1  6229.26   550.368
    6050.29  25163.8  6466.93   578.221
    6053.42  25294.5  6721.64   612.191
    6056.56  25436.4  7026.39   654.277
    6059.85  25519.4  7251.18   685.478
    6063.22  25607.4  7402.02   706.795
    6066.68  25767.6  7548.9   713.229
    6070.13  25917.9  7669.82   709.777
    6073.75  26096.3  7786.78   705.442
    6077.37  26289.8  7898.78   726.222
    6081.15  26469.4  7977.82   755.119
    6084.93  26677.1  8047.91   782.131
    6088.8  26866.9  8109.03   790.26
    6092.83  27058.8  8180.2   771.503
    6096.86  27282.8  8276.41   744.864
    6100.98  27512.9  8377.67   732.339
    6105.18  27751.1  8463.96   750.93
    6109.46  27980.4  8550.3   793.638
    6113.83  28189.8  8636.68   834.461
    6118.28  28482.4  8749.09   858.4
    6122.74  28739  8860.55   865.456
    6127.36  29018.7  8997.06   880.627
    6131.99  29258.6  9151.6   909.914
    6136.79  29542.5  9351.19   935.316
    6141.59  29834.6  9577.82   958.834
    6146.48  30148.7  9842.48   978.47
    6151.46  30445  10110.2   993.22
    6156.53  30742.3  10381.9  1016.08
    6161.6  31035.8  10644.7  1027.07
    6166.84  31365.3  10921.6  1034.17
    6172.1  31671  11182.5  1074.38
    6177.52  32005.8  11448.4  1130.71
    6182.95  32323.7  11711.3  1179.15
    6188.47  32669.6  11979.3  1220.72
    6194.08  32997.7  12240.4  1252.39
    6199.7  33342.9  12503.5  1288.19
    6205.5  33708.2  12783.6  1328.09
    6211.3  34075.6  13068.8  1371.12
    6217.2  34427.1  13348  1414.26
    6223.19  34819.7  13645.2  1437.52
    6229.2  35227.4  13947.5  1452.89
    6235.38  35501.2  14200.9  1460.38
    6241.56  35135.1  14195.3  1444.98
    6247.85  36268.1  14803.7  1510.7
    6254.23  36728.2  15154.1  1576.54
    6260.71  37116.5  15494.6  1655.49
    6267.2  37521.8  15852.2  1709.56
    6273.79  37920.2  16224.8  1755.74
    6280.48  38366.8  16648.4  1815.04
    6287.26  38751.4  17048.1  1862.45
    6294.06  39211.1  17492.8  1915.98
    6300.95  39619  17928.5  1979.63
    6307.95  40047.9  18373.3  2041.39
    6315.05  40481  18831.2  2096.27
    6322.16  40890.1  19275.1  2136.27
    6329.38  41345.4  19754  2183.38
    6336.69  41792.8  20244.9  2238.6
    6344.11  42243.2  20741  2303.94
    6351.55  42690.8  21255  2383.4
    6359.09  43164.5  21779.1  2467.97
    6366.65  43605.3  22293.2  2550.66
    6374.31  44042.1  22823.4  2634.47
    6382.07  44441.1  23332.6  2709.39
    6389.95  44830.2  23837.9  2776.43
    6397.84  45325.4  24427.2  2859.58
    6405.84  45766.7  24982.5  2933.85
    6413.95  46208.1  25553.9  3016.23
    6422.08  46650.6  26145.3  3104.73
    6430.32  47109.2  26754.8  3190.35
    6438.58  47562.9  27397.3  3277.08
    6446.95  48015.7  28042.8  3369.93
    6455.43  48425.7  28693.4  3473.9
    6463.93  48893.7  29376  3581.98
    6472.55  49336.8  30085.7  3686.17
    6481.28  49772  30801.4  3795.48
    6490.03  50243.4  31554.2  3912.91
    6498.9  50668.8  32299  4014.45
    6507.79  51058.4  33038.8  4123.11
    6516.8  51501  33820.7  4253.89
    6525.92  51948.8  34626.6  4381.78
    6535.07  52372.6  35432.6  4506.78
    6544.25  52763.6  36222.6  4621.91
    6553.54  53108.6  36999.7  4741.14
    6562.95  53523.8  37836.7  4868.5
    6572.4  53965.1  38685.9  5005.97
    6581.96  54415.4  39573.1  5153.55
    6591.55  54812.9  40438.3  5299.26
    6601.26  55208.5  41307.5  5447.07
    6611.09  55566.2  42167.8  5586.01
    6620.95  56039  43140.2  5748.06
    6630.85  56404.8  44028.6  5891.22
    6640.87  56821.8  45004  6055.51
    6650.92  57174.9  45930.4  6209.9
    6661.1  57552.1  46883.9  6372.41
    6671.31  57870.4  47809.5  6530.04
    6681.64  58223.8  48808.1  6700.79
    6692.01  58400.4  49656.7  6854.65
    6702.51  55774  48118.4  6668.62
    6713.04  60219.7  52734.1  7347.71
    6723.7  60113.5  53422.9  7482.92
    6734.4  60097.4  54229.7  7632.25
    6745.14  60600.5  55486.5  7856.69
    6756  58418.6  54289.4  7731.24
    6766.91  61503.9  58039.3  8304.91
    6777.94  61906.2  59294.3  8531.7
    6789.02  61944.6  60208.3  8707.6
    6800.23  61550.2  60721.4  8836.62
    6811.48  64346.8  64414.4  9423.76
    6822.77  63485.6  64487.6  9472.01
    6834.19  63592.5  65558.8  9678.37
    6845.66  63755.4  66726  9892.85
    6857.16  64025.5  67986.2  10131.5
    6868.81  64248.7  69246.5  10383.2
    6880.5  64440.9  70480.9  10618
    6892.33  64658.3  71780.3  10872.9
    6904.2  64829.8  73039.7  11120
    6916.11  65005.4  74343.2  11377.2
    6928.18  65077.1  75580.7  11634.5
    6940.28  65325.9  77011.2  11917.9
    6952.43  65425.8  78293.8  12183.4
    6964.62  65622.8  79736.4  12475.1
    6976.96  65777.9  81111.1  12761.8
    6989.35  65860.1  82447.8  13045.7
    7001.88  66041.4  83910.6  13335.7
    7014.47  66173.8  85329.4  13638.8
    7027.1  66292.3  86715.2  13931
    7039.77  66387  88107.1  14223.3
    7052.6  66496.7  89542.1  14520.8
    7065.48  66541.5  90896  14818.4
    7078.41  66701.5  92406  15148
    7091.39  66702.5  93737.1  15444.8
    7104.53  66734.6  95157.2  15760.8
    7111.06  66747.5  95839.5  15911.5