File: data/Cr/k2cro4_rt_003.xdi
# XDI/1.0
# Column.1: energy eV
# Column.2: i0
# Column.3: itrans
# Column.4: irefer
# Beamline.name: SSRL 2-3
# Beamline.notes: vert slits = 0.6mm
# Detector.I0: N2 15cm
# Detector.I1: N2 30cm
# Detector.I2: N2 15cm
# Element.edge: K
# Element.symbol: Cr
# Mono.d_spacing: 3.13550
# Mono.name: Si(111)
# Mono.notes: unfocused, detuned 75%, clockwise at E=5990eV
# Sample.formula: K2CrO4
# Sample.name: K2CrO4
# Sample.prep: powder on tape (5 layers)
# Sample.reference: Cr foil
# Sample.temperature: room temperature
# Scan.start_time: 1997-04-17 22:36:29
# ///
#    Note: mono d_spacing is nominal!
#     exafs to K16
#     396  E XMU XMUR I0
#-------------
#   energy   i0   itrans  irefer
    5759.99  25253.9  7299.5   930.7
    5780.01  25223.9  7623.5   983.7
    5799.97  25154.9  7936.5  1038.7
    5820  25073.9  8254.5  1091.7
    5839.97  24990.9  8584.5  1149.7
    5860.02  24917.9  8931.5  1209.7
    5879.99  24842.9  9278.5  1271.7
    5899.97  24770.9  9639.5  1336.7
    5920.02  24677.9  9996.5  1401.7
    5939.99  24579.9  10351.5  1469.7
    5959.97  24476.9  10705.5  1535.7
    5970.49  24391.9  10874.5  1569.7
    5971.53  24244.9  10832.5  1564.7
    5972.49  24030.9  10754.5  1552.7
    5973.53  24299.9  10896.5  1573.7
    5974.5  24431.9  10972.5  1584.7
    5975.46  24441.9  10994.5  1590.7
    5976.51  24432.9  11010.5  1592.7
    5977.47  24435.9  11030.5  1597.7
    5978.52  24431.9  11044.5  1598.7
    5979.48  24438.9  11065.5  1601.7
    5980.53  24428.9  11079.5  1604.7
    5981.49  24438.9  11097.5  1607.7
    5982.46  24445.9  11115.5  1609.7
    5983.51  24468.9  11144.5  1614.7
    5984.48  24460.9  11154.5  1616.7
    5985.52  24282.9  11081.5  1604.7
    5986.49  23239.9  10613.5  1535.7
    5987.46  21147.9  9664.5  1395.7
    5988.51  23096.9  10544.5  1514.7
    5989.48  23798.9  10849.5  1537.7
    5990.53  24064.9  10922.5  1477.7
    5991.5  24136.9  10831.5  1395.7
    5992.47  24160.9  10484.5  1305.7
    5993.52  24192.9  9233.5  1119.7
    5994.49  24198.9  6355.5   758.7
    5995.47  24210.9  6998.5   821.7
    5996.51  24209.9  9744.5  1140.7
    5997.49  24211.9  10437.5  1218.7
    5998.54  24204.9  10609.5  1217.7
    5999.51  24201.9  10529.5  1167.7
    6000.49  24138.9  10257.5  1094.7
    6001.46  23902.9  9848.5  1010.7
    6002.51  23900.9  9681.5   964.7
    6003.49  24159.9  9838.5   956.7
    6004.47  24189.9  9884.5   941.7
    6005.52  24183.9  9772.5   913.7
    6006.5  24170.9  9498.5   872.7
    6007.47  24165.9  9023.5   816.7
    6008.53  24164.9  8123.5   722.7
    6009.5  24163.9  7261.5   636.7
    6010.94  24153.7  6510.26   557.465
    6012.82  24150.8  6274.3   553.581
    6014.78  24145  6343.38   586.811
    6016.81  24194.3  6279.51   587.16
    6018.93  24203.7  6013.67   552.624
    6021.12  24267.2  5906.88   533.203
    6023.39  24292.8  5718.13   518.897
    6025.73  24369.6  5721.43   523.708
    6028.16  24414.4  5730.76   517.635
    6030.58  24481.3  5706.13   507.678
    6033.16  24559.4  5705.55   504.837
    6035.82  24639.5  5650.01   499.111
    6038.56  24734.8  5517.51   484.501
    6041.37  24799.1  5491.06   479.008
    6044.26  24923.6  5730.64   504.63
    6047.24  25030.1  6121.26   544.368
    6050.29  25162.8  6405.93   575.221
    6053.42  25299.5  6657.65   610.191
    6056.56  25403.4  6845.39   640.277
    6059.85  25556.4  7070.18   672.478
    6063.22  25635.4  7279.02   694.795
    6066.68  25767.6  7468.9   705.229
    6070.13  25968.9  7604.82   701.777
    6073.75  26111.3  7655.78   696.442
    6077.37  26300.8  7694.77   712.222
    6081.15  26502.4  7735.82   736.119
    6084.93  26698.1  7809.91   762.131
    6088.8  26896.9  7920.04   774.26
    6092.83  27130.8  8053.2   757.502
    6096.86  27336.8  8150.42   732.864
    6100.98  27549.9  8219.67   719.339
    6105.18  27803.1  8284.96   738.931
    6109.46  28059.4  8350.29   779.638
    6113.83  28281.8  8422.67   815.461
    6118.28  28538.4  8481.1   833.401
    6122.74  28805  8562.55   839.455
    6127.36  29072.7  8704.05   853.627
    6131.99  29337.6  8899.6   886.913
    6136.79  29648.5  9163.19   919.316
    6141.59  29939.6  9419.82   944.835
    6146.48  30229.7  9681.48   966.47
    6151.46  30547  9941.2   980.22
    6156.53  30878.3  10203.9  1002.08
    6161.6  31188.8  10458.7  1013.07
    6166.84  31512.3  10721.6  1021.17
    6172.1  31824  10986.5  1064.38
    6177.52  32156.8  11256.4  1117.71
    6182.95  32515.7  11528.3  1167.15
    6188.47  32870.6  11789.3  1205.71
    6194.08  33228.7  12047.4  1236.39
    6199.7  33575.9  12293.5  1272.19
    6205.5  33966.2  12550.6  1309.09
    6211.3  34301.6  12798.8  1350.12
    6217.2  34719.1  13072  1390.26
    6223.19  35116.7  13349.2  1409.52
    6229.2  35487.4  13611.5  1423.89
    6235.38  35663.2  13800.9  1423.38
    6241.56  35362.1  13834.3  1415.98
    6247.85  36643.1  14482.7  1487.7
    6254.23  37092.2  14831.1  1555.54
    6260.71  37520.5  15189.6  1635.49
    6267.2  37938.8  15567.2  1685.56
    6273.79  38348.2  15946.8  1733.74
    6280.48  38796.8  16354.4  1793.04
    6287.26  39258.4  16791.1  1843.45
    6294.06  39680.1  17219.8  1895.98
    6300.95  40117  17647.5  1961.63
    6307.95  40563.9  18105.3  2023.39
    6315.05  41003  18559.2  2078.27
    6322.16  41445.1  19018.1  2118.26
    6329.38  41922.4  19503  2170.37
    6336.69  42378.8  19985.9  2226.6
    6344.11  42869.2  20480  2294.94
    6351.55  43315.8  20952  2368.4
    6359.09  43815.5  21465.1  2447.97
    6366.65  44251.3  21942.2  2531.66
    6374.31  44724.1  22445.4  2609.47
    6382.07  45240.1  22988.6  2681.39
    6389.95  45702.2  23521.9  2755.43
    6397.84  46187.4  24073.2  2833.58
    6405.84  46671.7  24654.5  2907.85
    6413.95  47154.1  25244.9  2995.23
    6422.08  47604.6  25835.3  3084.73
    6430.32  48068.2  26443.8  3170.35
    6438.58  48546.9  27082.3  3245.08
    6446.95  49034.7  27758.8  3339.93
    6455.43  49531.7  28456.4  3449.89
    6463.93  50059.7  29200  3567.98
    6472.55  50478.8  29891.7  3668.17
    6481.28  50985  30643.4  3782.48
    6490.03  51463.4  31406.2  3897.91
    6498.9  51950.8  32187  4009.45
    6507.79  52438.4  32958.8  4122.11
    6516.8  52884  33719.7  4244.88
    6525.92  53387.8  34542.6  4377.78
    6535.07  53857.6  35351.6  4501.78
    6544.25  54257.6  36114.6  4616.9
    6553.54  54674.6  36907.7  4732.14
    6562.95  55096.8  37727.7  4860.5
    6572.4  55624.1  38621.9  4998.97
    6581.96  56050.4  39472  5147.55
    6591.55  56551.9  40380.3  5292.25
    6601.26  57005.5  41306.5  5447.07
    6611.09  57455.2  42225.8  5593.01
    6620.95  57938  43195.2  5747.06
    6630.85  58426.8  44182.6  5902.22
    6640.87  58814.8  45119  6062.5
    6650.92  59287.9  46139.4  6232.9
    6661.1  59734.1  47170.9  6409.41
    6671.31  60108.4  48159.5  6573.04
    6681.64  60514.8  49219.1  6750.78
    6692.01  60727.4  50119.7  6915.65
    6702.51  57846  48370.4  6710.62
    6713.04  62497.7  53116.1  7395.71
    6723.7  62379.5  53824.9  7533.92
    6734.4  62477.4  54696.7  7700.24
    6745.14  62988.5  55954.5  7921.69
    6756  62502.6  56371.4  8026.24
    6766.91  63963.9  58537.3  8377.91
    6777.94  64500.2  59890.3  8614.69
    6789.02  64583.6  60854.3  8800.61
    6800.23  64247.2  61432.4  8934.62
    6811.48  66831.8  64883.4  9487.76
    6822.77  66354.6  65357.6  9604.01
    6834.19  66517.5  66499.8  9830.38
    6845.66  66795.4  67766  10061.9
    6857.16  67088.5  69105.2  10310.5
    6868.81  67324.7  70397.5  10561.2
    6880.5  67756.9  71950.9  10843
    6892.33  68034.3  73334.3  11115.9
    6904.2  68364.8  74806.7  11406
    6916.11  68604.4  76225.2  11688.2
    6928.18  68774.1  77581.7  11948.5
    6940.28  69034.9  79071.2  12244.9
    6952.43  69239.8  80531.8  12529.4
    6964.62  69488.8  82036.4  12830.1
    6976.96  69767.9  83601.1  13134.8
    6989.35  70007.1  85137.8  13435.7
    7001.88  70237.4  86648.6  13759.7
    7014.47  70383.8  88110.4  14066.8
    7027.1  70551.3  89645.3  14378
    7039.77  70809  91243.1  14706.3
    7052.6  71004.7  92843.1  15039.8
    7065.48  71138.5  94358  15359.3
    7078.41  71354.5  96029  15709
    7091.39  71505.5  97603.1  16055.8
    7104.53  71583.6  99139.2  16394.7
    7111.06  71620.5  99902.5  16556.5