File: data/Cr/k2cro4_rt_001.xdi
# XDI/1.0
# Column.1: energy eV
# Column.2: i0
# Column.3: itrans
# Column.4: irefer
# Beamline.name: SSRL 2-3
# Beamline.notes: vert slits = 0.6mm
# Detector.I0: N2 15cm
# Detector.I1: N2 30cm
# Detector.I2: N2 15cm
# Element.edge: K
# Element.symbol: Cr
# Mono.d_spacing: 3.13550
# Mono.name: Si(111)
# Mono.notes: unfocused, detuned 75%, clockwise at E=5990eV
# Sample.formula: K2CrO4
# Sample.name: K2CrO4
# Sample.prep: powder on tape (5 layers)
# Sample.reference: Cr foil
# Sample.temperature: room temperature
# Scan.start_time: 1997-04-17 22:36:29
# ///
#    Note: mono d_spacing is nominal!
#     exafs to K16
#     396  E XMU XMUR I0
#-------------
#   energy   i0   itrans  irefer
    5759.99  25392.9  7338.5   934.7
    5780.01  25345.9  7651.5   987.7
    5799.97  25263.9  7967.5  1042.7
    5820  25203.9  8294.5  1097.7
    5839.97  25140.9  8635.5  1155.7
    5860.02  25061.9  8976.5  1213.7
    5879.99  24978.9  9322.5  1276.7
    5899.97  24876.9  9675.5  1339.7
    5920.02  24769.9  10030.5  1404.7
    5939.99  24669.9  10386.5  1471.7
    5959.97  24583.9  10749.5  1538.7
    5970.49  24510.9  10931.5  1574.7
    5971.53  24319.9  10852.5  1560.7
    5972.49  24172.9  10813.5  1557.7
    5973.53  24450.9  10960.5  1577.7
    5974.5  24584.9  11036.5  1590.7
    5975.46  24565.9  11048.5  1591.7
    5976.51  24599.9  11078.5  1597.7
    5977.47  24583.9  11088.5  1598.7
    5978.52  24628.9  11121.5  1603.7
    5979.48  24619.9  11141.5  1607.7
    5980.53  24652.9  11175.5  1611.7
    5981.49  24645.9  11186.5  1612.7
    5982.46  24640.9  11201.5  1614.7
    5983.51  24641.9  11219.5  1616.7
    5984.48  24683.9  11252.5  1620.7
    5985.52  24483.9  11168.5  1608.7
    5986.49  23528.9  10738.5  1547.7
    5987.46  21310.9  9736.5  1397.7
    5988.51  23275.9  10623.5  1517.7
    5989.48  23982.9  10927.5  1543.7
    5990.53  24275.9  11008.5  1484.7
    5991.5  24345.9  10922.5  1403.7
    5992.47  24383.9  10587.5  1313.7
    5993.52  24393.9  9342.5  1126.7
    5994.49  24423.9  6444.5   760.7
    5995.47  24410.9  7013.5   816.7
    5996.51  24440.9  9827.5  1141.7
    5997.49  24405.9  10517.5  1221.7
    5998.54  24425.9  10704.5  1221.7
    5999.51  24386.9  10606.5  1169.7
    6000.49  24353.9  10343.5  1097.7
    6001.46  24080.9  9916.5  1012.7
    6002.51  24110.9  9766.5   966.7
    6003.49  24347.9  9917.5   957.7
    6004.47  24394.9  9968.5   944.7
    6005.52  24358.9  9834.5   913.7
    6006.5  24372.9  9566.5   874.7
    6007.47  24354.9  9072.5   813.7
    6008.53  24368.9  8173.5   718.7
    6009.5  24351.9  7304.5   630.7
    6010.94  24356.7  6557.26   556.465
    6012.82  24343.8  6319.3   550.581
    6014.78  24362  6399.38   584.812
    6016.81  24347.3  6310.5   582.16
    6018.93  24391.7  6055.68   547.624
    6021.12  24414.2  5938.88   529.203
    6023.39  24476.8  5752.13   516.897
    6025.73  24576.6  5768.43   522.708
    6028.16  24622.4  5774.76   514.635
    6030.58  24700.3  5751.13   506.678
    6033.16  24760.4  5749.55   502.837
    6035.82  24856.5  5698.01   498.111
    6038.56  24920.8  5554.51   484.501
    6041.37  25031.1  5538.05   480.008
    6044.26  25132.6  5774.64   501.63
    6047.24  25246.1  6172.27   541.368
    6050.29  25395.8  6457.93   573.221
    6053.42  25506.5  6703.64   607.191
    6056.56  25637.4  6900.39   638.277
    6059.85  25764.4  7119.19   667.478
    6063.22  25838.4  7325.02   691.795
    6066.68  25998.6  7530.9   703.229
    6070.13  26159.9  7654.81   698.777
    6073.75  26337.3  7716.78   690.442
    6077.37  26522.8  7751.78   707.222
    6081.15  26708.4  7792.82   734.119
    6084.93  26907.1  7871.9   761.131
    6088.8  27114.9  7982.03   773.26
    6092.83  27325.8  8112.2   756.503
    6096.86  27520.8  8202.41   734.864
    6100.98  27778.9  8282.66   723.339
    6105.18  28027.1  8346.96   741.931
    6109.46  28243.4  8402.29   781.638
    6113.83  28437.8  8462.67   819.461
    6118.28  28707.4  8529.09   837.401
    6122.74  28974  8605.56   840.457
    6127.36  29245.7  8746.06   855.627
    6131.99  29498.6  8942.6   884.914
    6136.79  29769.5  9189.18   917.315
    6141.59  30051.6  9446.81   942.835
    6146.48  30363.7  9717.49   964.471
    6151.46  30663  9976.19   981.219
    6156.53  30987.3  10233.9  1000.09
    6161.6  31275.8  10474.7  1010.07
    6166.84  31607.3  10742.6  1017.17
    6172.1  31931  11014.5  1060.38
    6177.52  32269.8  11290.4  1117.71
    6182.95  32598.7  11549.3  1168.15
    6188.47  32964.6  11821.3  1205.71
    6194.08  33329.7  12076.4  1238.39
    6199.7  33665.9  12321.5  1272.19
    6205.5  34000.2  12552.6  1307.09
    6211.3  34379.6  12818.8  1349.12
    6217.2  34796.1  13092  1389.26
    6223.19  35175.7  13361.2  1410.52
    6229.2  35578.4  13636.5  1423.89
    6235.38  35793.2  13850.9  1428.38
    6241.56  35467.1  13866.3  1415.98
    6247.85  36677.1  14491.7  1479.7
    6254.23  37126.2  14841.1  1553.54
    6260.71  37536.5  15195.6  1628.49
    6267.2  37987.8  15572.2  1682.55
    6273.79  38411.2  15961.8  1730.74
    6280.48  38841.8  16367.4  1787.04
    6287.26  39267.4  16792.1  1840.45
    6294.06  39739.1  17235.8  1897.98
    6300.95  40155  17669.5  1960.63
    6307.95  40608.9  18132.3  2024.39
    6315.05  41033  18571.2  2074.27
    6322.16  41468.1  19029.1  2121.26
    6329.38  41956.4  19516  2166.37
    6336.69  42425.8  19997.9  2223.6
    6344.11  42899.2  20485  2291.94
    6351.55  43355.8  20969  2366.4
    6359.09  43835.5  21464.1  2444.97
    6366.65  44320.3  21973.2  2530.66
    6374.31  44764.1  22482.4  2607.47
    6382.07  45244.1  23004.6  2679.39
    6389.95  45673.2  23520.9  2752.43
    6397.84  46193.4  24101.2  2834.58
    6405.84  46658.7  24656.5  2904.85
    6413.95  47150.1  25245.9  2987.23
    6422.08  47622.6  25855.3  3077.73
    6430.32  48089.2  26484.8  3165.35
    6438.58  48560.9  27118.3  3245.08
    6446.95  49051.7  27796.8  3338.93
    6455.43  49500.7  28471.4  3443.89
    6463.93  50026.7  29208  3559.97
    6472.55  50471.8  29903.7  3665.17
    6481.28  50957  30643.4  3778.48
    6490.03  51441.4  31404.2  3895.91
    6498.9  51927.8  32176  4003.45
    6507.79  52409.4  32950.8  4118.11
    6516.8  52860  33720.7  4244.89
    6525.92  53386.8  34565.6  4377.78
    6535.07  53862.6  35376.6  4510.78
    6544.25  54286.6  36161.6  4629.9
    6553.54  54666.6  36922.7  4739.14
    6562.95  55130.8  37764.7  4870.5
    6572.4  55643.1  38663.9  5012.97
    6581.96  56059.4  39510.1  5151.55
    6591.55  56573.9  40427.3  5298.26
    6601.26  57025.5  41325.5  5447.07
    6611.09  57486.2  42263.8  5600
    6620.95  57976  43227.2  5755.06
    6630.85  58423.8  44195.5  5917.22
    6640.87  58854.8  45169  6084.5
    6650.92  59240.9  46120.4  6243.9
    6661.1  59707.1  47175.9  6430.41
    6671.31  60106.4  48182.5  6597.04
    6681.64  60488.8  49210.1  6764.79
    6692.01  60739.4  50157.7  6924.64
    6702.51  57784  48325.4  6702.62
    6713.04  62549.7  53187.1  7411.71
    6723.7  62469.5  53901.9  7554.92
    6734.4  62519.4  54750.7  7706.24
    6745.14  63018.5  56002.5  7928.69
    6756  62328.6  56224.4  8007.24
    6766.91  63988.9  58566.3  8386.91
    6777.94  64527.2  59946.3  8622.7
    6789.02  64563.6  60854.3  8809.6
    6800.23  64266.2  61472.4  8946.62
    6811.48  66898.8  64947.4  9504.76
    6822.77  66305.6  65316.6  9602
    6834.19  66470.5  66449.8  9824.37
    6845.66  66791.4  67776  10059.9
    6857.16  67078.5  69101.2  10316.5
    6868.81  67267.7  70354.5  10561.2
    6880.5  67576.9  71769.9  10819
    6892.33  67852.3  73150.3  11092.9
    6904.2  68098.8  74537.7  11369
    6916.11  68319.4  75935.2  11646.2
    6928.18  68453.1  77244.7  11915.5
    6940.28  68777.9  78791.2  12221.9
    6952.43  68969.8  80239.8  12514.4
    6964.62  69224.8  81745.4  12811.1
    6976.96  69566.9  83387.1  13132.8
    6989.35  69740.1  84793.8  13420.7
    7001.88  69861.4  86204.6  13718.7
    7014.47  70101.8  87783.4  14032.8
    7027.1  70283.3  89306.2  14348
    7039.77  70445  90825.1  14659.3
    7052.6  70643.7  92396.1  14998.8
    7065.48  70829.5  93982  15330.4
    7078.41  70986.5  95553  15672
    7091.39  71135.5  97150.1  16021.8
    7104.53  71169.6  98609.2  16340.8
    7111.06  71187.5  99344.5  16507.5