File: data/Cr/k2cr2o7_rt_004.xdi
# XDI/1.0
# Column.1: energy eV
# Column.2: i0
# Column.3: itrans
# Column.4: irefer
# Beamline.name: SSRL 2-3
# Beamline.notes: vert slits = 0.6mm
# Detector.I0: N2 15cm
# Detector.I1: N2 30cm
# Detector.I2: N2 15cm
# Element.edge: K
# Element.symbol: Cr
# Mono.d_spacing: 3.13550
# Mono.name: Si(111)
# Mono.notes: unfocused, detuned 75%, clockwise at E=5990eV
# Sample.formula: K2Cr2O7
# Sample.name: K2Cr2O7
# Sample.prep: powder on tape (6 layers)
# Sample.reference: Cr foil
# Sample.temperature: room temp
# Scan.start_time: 1997-04-17 18:36:45
# ///
#    Note: mono d_spacing is nominal!
#     exafs to K16
#     396  E XMU XMUR I0
#-------------
#   energy   i0   itrans  irefer
    5759.99  26044.9  9096.5  1158.7
    5780.01  25985.9  9468.5  1221.7
    5799.97  25872.9  9837.5  1284.7
    5820  25792.9  10223.5  1353.7
    5839.97  25678.9  10606.5  1420.7
    5860.02  25584.9  11010.5  1493.7
    5879.99  25468.9  11404.5  1565.7
    5899.97  25357.9  11814.5  1639.7
    5920.02  25238.9  12232.5  1719.7
    5939.99  25135.9  12652.5  1798.7
    5959.97  25015.9  13065.5  1874.7
    5970.49  24911.9  13250.5  1913.7
    5971.53  24879.9  13256.5  1916.7
    5972.49  24601.9  13132.5  1899.7
    5973.53  24702.9  13206.5  1909.7
    5974.5  24921.9  13346.5  1931.7
    5975.46  24968.9  13390.5  1935.7
    5976.51  24937.9  13393.5  1939.7
    5977.47  24956.9  13423.5  1943.7
    5978.52  24960.9  13446.5  1947.7
    5979.48  24966.9  13463.5  1951.7
    5980.53  24953.9  13480.5  1952.7
    5981.49  24963.9  13500.5  1956.7
    5982.46  24952.9  13511.5  1959.7
    5983.51  24971.9  13543.5  1965.7
    5984.48  24995.9  13565.5  1966.7
    5985.52  24968.9  13566.5  1965.7
    5986.49  24430.9  13283.5  1923.7
    5987.46  22224.9  12081.5  1748.7
    5988.51  22840.9  12411.5  1787.7
    5989.48  24066.9  13048.5  1868.7
    5990.53  24502.9  13228.5  1840.7
    5991.5  24632.9  13162.5  1735.7
    5992.47  24671.9  12794.5  1620.7
    5993.52  24689.9  11532.5  1418.7
    5994.49  24707.9  9239.5  1111.7
    5995.47  24716.9  6830.5   809.701
    5996.51  24689.9  9785.5  1147.7
    5997.49  24710.9  11775.5  1379.7
    5998.54  24692.9  12407.5  1442.7
    5999.51  24687.9  12532.5  1418.7
    6000.49  24650.9  12370.5  1346.7
    6001.46  24494.9  11955.5  1254.7
    6002.51  24298.9  11455.5  1159.7
    6003.49  24551.9  11259.5  1111.7
    6004.47  24652.9  11097.5  1072.7
    6005.52  24659.9  10846.5  1026.7
    6006.5  24633.9  10388.5   968.7
    6007.47  24650.9  9836.5   898.7
    6008.53  24632.9  9169.5   822.7
    6009.5  24654.9  8422.5   742.7
    6010.94  24624.7  7381.25   636.465
    6012.82  24604.8  6661.3   583.581
    6014.78  24615  6404.38   586.812
    6016.81  24618.3  6235.5   584.16
    6018.93  24650.7  6167.67   569.624
    6021.12  24660.2  6195.88   559.203
    6023.39  24744.8  6160.13   558.897
    6025.73  24780.6  6004.43   552.708
    6028.16  24828.4  5884.76   535.635
    6030.58  24880.3  5790.13   517.678
    6033.16  24970.4  5742.55   507.837
    6035.82  25045.5  5749.01   508.111
    6038.56  25118.8  5784.51   506.501
    6041.37  25212.1  5886.06   513.008
    6044.26  25303.6  6071.64   528.63
    6047.24  25432.1  6319.26   557.368
    6050.29  25523.8  6559.93   583.221
    6053.42  25667.5  6819.64   620.191
    6056.56  25797.4  7125.39   661.277
    6059.85  25917.4  7373.19   695.478
    6063.22  25997.4  7522.02   714.795
    6066.68  26127.6  7660.9   721.229
    6070.13  26278.9  7783.81   716.777
    6073.75  26518.3  7920.78   715.442
    6077.37  26680.8  8020.78   733.222
    6081.15  26852.4  8101.82   762.12
    6084.93  27092.1  8177.9   793.131
    6088.8  27301.9  8249.03   803.26
    6092.83  27469.8  8312.2   781.503
    6096.86  27675.8  8402.41   758.863
    6100.98  27880.9  8492.66   744.338
    6105.18  28086.1  8575.96   759.931
    6109.46  28316.4  8664.29   802.638
    6113.83  28576.8  8761.67   846.461
    6118.28  28852.4  8873.09   869.401
    6122.74  29076  8975.55   878.456
    6127.36  29343.7  9112.05   890.627
    6131.99  29606.6  9268.6   919.914
    6136.79  29924.5  9484.19   949.317
    6141.59  30233.6  9719.82   969.834
    6146.48  30480.7  9958.49   989.47
    6151.46  30783  10227.2  1005.22
    6156.53  31093.3  10506  1029.08
    6161.6  31390.8  10775.7  1039.07
    6166.84  31734.3  11059.6  1050.17
    6172.1  32027  11318.5  1088.38
    6177.52  32375.8  11592.4  1149.71
    6182.95  32692.7  11855.3  1202.15
    6188.47  33060.6  12135.3  1242.71
    6194.08  33389.7  12395.4  1275.39
    6199.7  33807.9  12690.5  1314.19
    6205.5  34160.2  12971.6  1348.09
    6211.3  34536.6  13258.8  1396.12
    6217.2  34881.1  13538  1440.26
    6223.19  35269.7  13838.2  1463.52
    6229.2  35649.4  14127.5  1480.89
    6235.38  35976.2  14401.9  1490.38
    6241.56  35644.1  14415.3  1477.98
    6247.85  36651.1  14975.7  1537.7
    6254.23  37190.2  15359.1  1607.54
    6260.71  37574.5  15695.6  1685.49
    6267.2  37995.8  16066.2  1739.55
    6273.79  38389.2  16444.8  1784.74
    6280.48  38821.8  16852.4  1842.04
    6287.26  39197.4  17258.1  1892.45
    6294.06  39642.1  17697.8  1948.98
    6300.95  40093  18156.5  2016.63
    6307.95  40452.9  18578.3  2075.39
    6315.05  40963  19077.2  2134.27
    6322.16  41394.1  19538.1  2180.27
    6329.38  41852.4  20022  2230.38
    6336.69  42284.8  20511.9  2284.6
    6344.11  42739.2  21017  2353.94
    6351.55  43182.8  21522  2433.4
    6359.09  43631.5  22041.1  2515.98
    6366.65  44091.3  22571.2  2608.66
    6374.31  44504.1  23097.4  2688.47
    6382.07  44934.1  23616.6  2758.39
    6389.95  45401.2  24170.9  2833.43
    6397.84  45795.4  24696.2  2911.58
    6405.84  46254.7  25265.5  2989.85
    6413.95  46720.1  25864.9  3070.23
    6422.08  47159.6  26450.3  3157.73
    6430.32  47594.2  27055.8  3239.35
    6438.58  47985.9  27658.3  3312.08
    6446.95  48476.7  28335.8  3406.93
    6455.43  48880.7  28977.4  3515.89
    6463.93  49367.7  29706  3628.98
    6472.55  49766.8  30377.7  3732.17
    6481.28  50214  31110.4  3844.48
    6490.03  50696.4  31873.2  3960.91
    6498.9  51120.8  32625  4066.45
    6507.79  51565.4  33388.8  4175.11
    6516.8  51955  34157.7  4297.89
    6525.92  52397.8  34975.6  4430.78
    6535.07  52829.6  35780.6  4558.78
    6544.25  53214.6  36574.6  4681.91
    6553.54  53585.6  37372.7  4794.14
    6562.95  53996.8  38200.7  4924.5
    6572.4  54465.1  39082.9  5065.97
    6581.96  54806.4  39903.1  5203.55
    6591.55  55251.9  40788.3  5349.26
    6601.26  55630.5  41657.5  5490.07
    6611.09  56027.2  42561.8  5638.01
    6620.95  56445  43477.2  5785.06
    6630.85  56845.8  44419.6  5943.22
    6640.87  57239.8  45374  6102.5
    6650.92  57553.9  46285.4  6262.9
    6661.1  57985.1  47293.9  6429.41
    6671.31  58339.4  48256.5  6591.04
    6681.64  58636.8  49211.1  6756.78
    6692.01  58846.4  50101.7  6907.65
    6702.51  56379  48701.4  6746.62
    6713.04  60632.7  53164.1  7392.71
    6723.7  60536.5  53869.9  7526.92
    6734.4  60540.4  54673.7  7679.25
    6745.14  61031.5  55938.5  7912.68
    6756  57972.6  53938.4  7668.24
    6766.91  61848.9  58411.3  8350.91
    6777.94  62345.2  59764.3  8590.7
    6789.02  62161.6  60478.3  8735.6
    6800.23  61845.2  61063.4  8867.62
    6811.48  64550.8  64689.4  9444.76
    6822.77  63570.6  64640.6  9493.01
    6834.19  63630.5  65656.8  9696.37
    6845.66  63805.4  66837  9911.85
    6857.16  64041.5  68066.2  10144.5
    6868.81  64276.7  69337.5  10388.2
    6880.5  64462.9  70576.9  10625
    6892.33  64693.3  71903.3  10888.9
    6904.2  64840.8  73157.7  11132
    6916.11  64955.4  74393.2  11384.2
    6928.18  65028.1  75606.7  11638.5
    6940.28  65176.9  76941.2  11898.9
    6952.43  65314.8  78244.8  12176.4
    6964.62  65395.8  79566.4  12451.1
    6976.96  65405.9  80754.1  12700.8
    6989.35  65610.1  82229.8  12988.7
    7001.88  65722.4  83624.6  13272.7
    7014.47  65785.8  84936.4  13546.8
    7027.1  65821.3  86230.3  13829
    7039.77  65997  87711.1  14130.3
    7052.6  66070.7  89097.1  14425.8
    7065.48  66125.5  90473  14733.4
    7078.41  66223.5  91875  15048
    7091.39  66231.5  93198.1  15335.8
    7104.53  66247.6  94558.2  15638.7
    7111.06  66236.5  95139.5  15784.5