File: data/Cr/k2cro4_15K_002.xdi
# XDI/1.0
# Column.1: energy eV
# Column.2: i0
# Column.3: itrans
# Column.4: irefer
# Beamline.name: SSRL 2-3
# Beamline.notes: vert slits = 0.6mm
# Detector.I0: N2 15cm
# Detector.I1: N2 30cm
# Detector.I2: N2 15cm
# Element.edge: K
# Element.symbol: Cr
# Mono.d_spacing: 3.13550
# Mono.name: Si(111)
# Mono.notes: unfocused, detuned 75%, clockwise at E=5990eV
# Sample.formula: K2CrO4
# Sample.name: K2CrO4
# Sample.prep: powder on tape (4 layers)
# Sample.reference: Cr foil
# Sample.temperature: 15K
# Scan.start_time: 1997-04-18 11:01:58
# ///
#    Note: mono d_spacing is nominal!
#     exafs to K16
#     396  E XMU XMUR I0
#-------------
#   energy   i0   itrans  irefer
    5759.99  168036  3288.7   427.3
    5780.01  166921  3426.7   449.3
    5799.97  165585  3561.7   472.3
    5820  164293  3704.7   497.3
    5839.97  162890  3845.7   522.3
    5860.02  161584  3994.7   547.3
    5879.99  160183  4138.7   572.3
    5899.97  158681  4284.7   600.3
    5920.02  157235  4435.7   626.3
    5939.99  155764  4586.7   655.3
    5959.97  154445  4741.7   684.3
    5970.49  153469  4812.7   697.3
    5971.53  152815  4798.7   694.3
    5972.49  151278  4762.7   689.3
    5973.53  151843  4782.7   693.299
    5974.5  153658  4852.7   703.3
    5975.46  153536  4856.7   705.3
    5976.51  153582  4867.7   707.3
    5977.47  153346  4866.7   706.3
    5978.52  153227  4874.7   708.3
    5979.48  153261  4886.7   709.3
    5980.53  153220  4891.7   710.3
    5981.49  153303  4899.7   712.3
    5982.46  153195  4905.7   712.3
    5983.51  153396  4916.7   713.3
    5984.48  153362  4925.7   715.3
    5985.52  153344  4927.7   716.3
    5986.49  150146  4832.7   702.3
    5987.46  137769  4433.7   643.3
    5988.51  140084  4512.7   653.3
    5989.48  147103  4732.7   678.3
    5990.53  149841  4801.7   669.3
    5991.5  150346  4778.7   631.3
    5992.47  150672  4689.7   595.3
    5993.52  150757  4332.7   534.3
    5994.49  150866  3290.7   399.3
    5995.47  150818  2508.7   300.3
    5996.51  150805  3869.7   455.3
    5997.49  150620  4468.7   525.3
    5998.54  150555  4630.7   539.3
    5999.51  150423  4630.7   525.3
    6000.49  150141  4542.7   496.3
    6001.46  149145  4359.7   459.3
    6002.51  147826  4202.7   427.3
    6003.49  150227  4266.7   424.3
    6004.47  150422  4313.7   418.3
    6005.52  150263  4304.7   409.3
    6006.5  150034  4201.7   392.3
    6007.47  149973  4037.7   372.3
    6008.53  149999  3705.7   335.3
    6009.5  149796  3242.7   290.3
    6010.94  149790  2766.46   244.064
    6012.82  149553  2604.51   233.181
    6014.78  149614  2649.62   248.415
    6016.81  149486  2668.78   252.765
    6018.93  149660  2526   237.233
    6021.12  149727  2478.27   227.817
    6023.39  149883  2407.6   222.518
    6025.73  150271  2360.98   220.335
    6028.16  150345  2373.42   220.27
    6030.58  150645  2337.91   214.321
    6033.16  150923  2351.45   212.49
    6035.82  151285  2363.05   214.774
    6038.56  151807  2303.7   208.176
    6041.37  152187  2252.41   200.695
    6044.26  152741  2323.17   206.331
    6047.24  153338  2489.98   224.083
    6050.29  153801  2636.85   238.952
    6053.42  154561  2741.78   253.938
    6056.56  155310  2816.76   266.041
    6059.85  155791  2902.79   277.26
    6063.22  156187  3021.88   290.597
    6066.68  157027  3128.02   297.05
    6070.13  157890  3203.22   298.621
    6073.75  158792  3203.47   293.307
    6077.37  159857  3195.78   296.111
    6081.15  160829  3181.14   303.031
    6084.93  161817  3191.55   314.069
    6088.8  162826  3237.02   318.223
    6092.83  163837  3322.54   316.494
    6096.86  165175  3401.12   309.882
    6100.98  166309  3435.76   306.387
    6105.18  167537  3457.44   312.008
    6109.46  168670  3436.18   324.746
    6113.83  169782  3452.98   338.601
    6118.28  171317  3492.83   348.573
    6122.74  172677  3500.73   348.662
    6127.36  174060  3532.69   351.868
    6131.99  175479  3620.7   365.19
    6136.79  176893  3746.77   381.629
    6141.59  178142  3885.89   393.185
    6146.48  179710  3988.07   403.858
    6151.46  181229  4080.3   406.648
    6156.53  182603  4168.58   414.554
    6161.6  184259  4254.92   417.578
    6166.84  185847  4341.31   421.718
    6172.1  187285  4443.76   437.975
    6177.52  189096  4585.27   462.349
    6182.95  190127  4702.83   483.839
    6188.47  192037  4801.44   498.447
    6194.08  193752  4900.1   511.17
    6199.7  195463  4988.82   522.012
    6205.5  197405  5088.6   534.97
    6211.3  199292  5182.43   551.044
    6217.2  201092  5273.31   565.236
    6223.19  202940  5387.25   574.544
    6229.2  204796  5495.24   580.97
    6235.38  206044  5595.28   581.512
    6241.56  204511  5601.39   579.171
    6247.85  209895  5812.54   599.946
    6254.23  212006  5941.75   625.839
    6260.71  213924  6083.02   655.848
    6267.2  215539  6223.33   677.974
    6273.79  217358  6368.71   695.217
    6280.48  219557  6525.13   719.577
    6287.26  221514  6665.61   737.053
    6294.06  223429  6832.15   756.646
    6300.95  225420  7008.75   782.358
    6307.95  227379  7193.39   806.185
    6315.05  229408  7376.09   824.128
    6322.16  231004  7525.84   838.188
    6329.38  233328  7711.65   858.366
    6336.69  235206  7899.51   878.661
    6344.11  236732  8054.43   900.072
    6351.55  239089  8244.4   930.6
    6359.09  240770  8416.43   956.244
    6366.65  242735  8595.5   988.006
    6374.31  244627  8774.64  1017.88
    6382.07  246614  8976.83  1043.88
    6389.95  248780  9191.08  1075.99
    6397.84  250868  9397.37  1102.22
    6405.84  252671  9590.72  1131.57
    6413.95  254340  9790.13  1158.03
    6422.08  255852  9986.59  1191.61
    6430.32  257655  10206.1  1222.3
    6438.58  259340  10452.7  1251.12
    6446.95  260869  10680.3  1288.05
    6455.43  262630  10923  1324.09
    6463.93  264478  11190.7  1364.26
    6472.55  266134  11437.5  1404.54
    6481.28  267526  11681.3  1440.93
    6490.03  269294  11954.2  1484.45
    6498.9  271040  12224.2  1520.08
    6507.79  272660  12490.2  1559.83
    6516.8  273895  12740.2  1604.69
    6525.92  275336  13029.4  1648.67
    6535.07  277009  13320.5  1694.77
    6544.25  278083  13577.8  1736.99
    6553.54  279285  13829  1769.32
    6562.95  280089  14097.4  1809.77
    6572.4  281696  14395.8  1856.33
    6581.96  282837  14685.2  1903.01
    6591.55  284046  14970.7  1950.81
    6601.26  285335  15280.2  2002.73
    6611.09  286176  15560.8  2053.76
    6620.95  287446  15875.5  2101.91
    6630.85  288386  16174.2  2154.18
    6640.87  289210  16475  2204.56
    6650.92  289909  16785.8  2259.06
    6661.1  290862  17115.7  2316.68
    6671.31  291292  17418.6  2374.41
    6681.64  291760  17727.6  2432.26
    6692.01  291477  17992.6  2472.23
    6702.51  277460  17427.7  2412.31
    6713.04  300785  19168.9  2666.51
    6723.7  298004  19290.1  2693.83
    6734.4  296151  19491.3  2728.26
    6745.14  297564  19906.6  2796.82
    6756  292204  19891  2818.49
    6766.91  301381  20815.4  2964.27
    6777.94  302573  21230.9  3040.17
    6789.02  300731  21443.4  3088.19
    6800.23  296859  21508  3119.32
    6811.48  313320  23052.6  3361.58
    6822.77  305882  22893.3  3354.95
    6834.19  304804  23191.1  3414.43
    6845.66  304789  23567.9  3495.03
    6857.16  304511  23929.7  3564.75
    6868.81  304083  24291.6  3643.59
    6880.5  304341  24711.6  3721.54
    6892.33  304195  25118.6  3796.62
    6904.2  304206  25525.7  3883.8
    6916.11  304236  25963.8  3975.1
    6928.18  303258  26320  4042.52
    6940.28  303634  26799.2  4144.06
    6952.43  303732  27247.5  4231.72
    6964.62  303786  27687.9  4327.49
    6976.96  303757  28157.3  4417.37
    6989.35  303469  28588.7  4503.38
    7001.88  303253  29027.2  4618.5
    7014.47  303266  29494.8  4707.74
    7027.1  302702  29914.4  4808.1
    7039.77  302739  30403.1  4904.56
    7052.6  302587  30848.8  5003.15
    7065.48  302938  31368.6  5110.86
    7078.41  302030  31771.4  5205.68
    7091.39  301619  32234.3  5303.62
    7104.53  301213  32705.3  5419.67
    7111.06  300792  32918.5  5469.5