File: data/Cr/k2cro4_rt_002.xdi
# XDI/1.0
# Column.1: energy eV
# Column.2: i0
# Column.3: itrans
# Column.4: irefer
# Beamline.name: SSRL 2-3
# Beamline.notes: vert slits = 0.6mm
# Detector.I0: N2 15cm
# Detector.I1: N2 30cm
# Detector.I2: N2 15cm
# Element.edge: K
# Element.symbol: Cr
# Mono.d_spacing: 3.13550
# Mono.name: Si(111)
# Mono.notes: unfocused, detuned 75%, clockwise at E=5990eV
# Sample.formula: K2CrO4
# Sample.name: K2CrO4
# Sample.prep: powder on tape (5 layers)
# Sample.reference: Cr foil
# Sample.temperature: room temperature
# Scan.start_time: 1997-04-17 22:36:29
# ///
#    Note: mono d_spacing is nominal!
#     exafs to K16
#     396  E XMU XMUR I0
#-------------
#   energy   i0   itrans  irefer
    5759.99  25333.9  7326.5   936.7
    5780.01  25296.9  7638.5   989.699
    5799.97  25231.9  7955.5  1041.7
    5820  25164.9  8287.5  1097.7
    5839.97  25091.9  8617.5  1156.7
    5860.02  24999.9  8953.5  1213.7
    5879.99  24928.9  9310.5  1278.7
    5899.97  24851.9  9673.5  1340.7
    5920.02  24762.9  10029.5  1407.7
    5939.99  24668.9  10385.5  1474.7
    5959.97  24573.9  10747.5  1543.7
    5970.49  24474.9  10913.5  1572.7
    5971.53  24322.9  10862.5  1567.7
    5972.49  24111.9  10793.5  1557.7
    5973.53  24410.9  10945.5  1580.7
    5974.5  24493.9  11003.5  1587.7
    5975.46  24528.9  11035.5  1596.7
    5976.51  24509.9  11041.5  1596.7
    5977.47  24530.9  11072.5  1599.7
    5978.52  24510.9  11083.5  1603.7
    5979.48  24530.9  11107.5  1607.7
    5980.53  24518.9  11119.5  1608.7
    5981.49  24535.9  11141.5  1612.7
    5982.46  24529.9  11152.5  1614.7
    5983.51  24583.9  11197.5  1618.7
    5984.48  24562.9  11195.5  1619.7
    5985.52  24390.9  11124.5  1606.7
    5986.49  23339.9  10656.5  1539.7
    5987.46  21238.9  9702.5  1399.7
    5988.51  23179.9  10586.5  1518.7
    5989.48  23902.9  10897.5  1544.7
    5990.53  24158.9  10960.5  1484.7
    5991.5  24245.9  10881.5  1398.7
    5992.47  24257.9  10530.5  1309.7
    5993.52  24306.9  9279.5  1123.7
    5994.49  24302.9  6381.5   757.7
    5995.47  24317.9  7042.5   823.7
    5996.51  24332.9  9793.5  1141.7
    5997.49  24345.9  10498.5  1222.7
    5998.54  24332.9  10664.5  1221.7
    5999.51  24331.9  10589.5  1172.7
    6000.49  24254.9  10302.5  1094.7
    6001.46  24037.9  9906.5  1014.7
    6002.51  24020.9  9733.5   965.7
    6003.49  24289.9  9894.5   958.7
    6004.47  24310.9  9935.5   943.7
    6005.52  24310.9  9823.5   915.7
    6006.5  24291.9  9543.5   874.7
    6007.47  24307.9  9067.5   817.7
    6008.53  24282.9  8150.5   719.7
    6009.5  24294.9  7288.5   634.7
    6010.94  24293.7  6544.26   559.465
    6012.82  24302.8  6316.3   555.581
    6014.78  24284  6382.38   587.812
    6016.81  24323.3  6313.51   587.16
    6018.93  24324.7  6043.68   549.624
    6021.12  24379.2  5934.88   531.203
    6023.39  24426.8  5747.13   519.897
    6025.73  24476.6  5747.43   522.708
    6028.16  24539.4  5761.76   515.635
    6030.58  24612.3  5739.14   508.678
    6033.16  24696.4  5739.55   503.837
    6035.82  24751.5  5682.01   500.111
    6038.56  24862.8  5550.51   483.501
    6041.37  24933.1  5523.06   478.008
    6044.26  25052.6  5764.64   502.63
    6047.24  25171.1  6162.26   540.368
    6050.29  25279.8  6438.93   572.221
    6053.42  25423.5  6696.64   608.191
    6056.56  25537.4  6884.39   639.277
    6059.85  25674.4  7110.18   669.478
    6063.22  25762.4  7320.02   692.795
    6066.68  25905.6  7517.9   704.229
    6070.13  26084.9  7647.81   698.777
    6073.75  26270.3  7706.77   695.441
    6077.37  26448.8  7743.78   711.222
    6081.15  26656.4  7785.82   737.119
    6084.93  26831.1  7850.91   762.131
    6088.8  27016.9  7959.03   769.26
    6092.83  27246.8  8089.2   753.503
    6096.86  27458.8  8189.41   728.864
    6100.98  27679.9  8259.67   720.339
    6105.18  27921.1  8317.96   736.931
    6109.46  28182.4  8384.3   777.639
    6113.83  28430.8  8462.67   816.461
    6118.28  28674.4  8521.1   831.401
    6122.74  28940  8598.55   836.456
    6127.36  29215.7  8741.05   850.626
    6131.99  29503.6  8948.6   882.914
    6136.79  29788.5  9203.19   917.316
    6141.59  30097.6  9473.81   940.834
    6146.48  30358.7  9723.48   960.469
    6151.46  30689  9987.2   976.219
    6156.53  30988.3  10239.9   998.085
    6161.6  31300.8  10495.7  1009.07
    6166.84  31644.3  10761.6  1017.17
    6172.1  31960  11025.5  1061.38
    6177.52  32291.8  11305.4  1115.71
    6182.95  32620.7  11560.3  1168.15
    6188.47  32979.6  11824.3  1205.71
    6194.08  33335.7  12081.4  1236.39
    6199.7  33701.9  12338.5  1271.19
    6205.5  34049.2  12586.6  1305.09
    6211.3  34454.6  12848.8  1348.12
    6217.2  34823.1  13111  1384.26
    6223.19  35197.7  13379.2  1404.52
    6229.2  35613.4  13661.5  1419.89
    6235.38  35791.2  13853.9  1421.38
    6241.56  35482.1  13876.3  1412.98
    6247.85  36761.1  14531.7  1484.7
    6254.23  37203.2  14875.1  1549.54
    6260.71  37633.5  15237.6  1628.49
    6267.2  38075.8  15620.2  1685.56
    6273.79  38492.2  16007.8  1731.74
    6280.48  38936.8  16411.4  1788.04
    6287.26  39356.4  16831.1  1838.45
    6294.06  39801.1  17266.8  1890.98
    6300.95  40234  17706.5  1955.63
    6307.95  40691.9  18161.3  2018.39
    6315.05  41134  18621.2  2072.27
    6322.16  41591.1  19089.1  2118.27
    6329.38  42095.4  19576  2173.38
    6336.69  42549.8  20064.9  2227.6
    6344.11  43023.2  20541  2293.94
    6351.55  43511.8  21038  2369.4
    6359.09  43962.5  21525.1  2443.97
    6366.65  44433.3  22029.2  2532.66
    6374.31  44936.1  22554.4  2613.47
    6382.07  45399.1  23072.6  2683.39
    6389.95  45873.2  23616.9  2758.43
    6397.84  46347.4  24168.2  2836.58
    6405.84  46841.7  24748.5  2913.85
    6413.95  47316.1  25333.9  2995.23
    6422.08  47820.6  25952.3  3088.73
    6430.32  48247.2  26545.8  3170.35
    6438.58  48756.9  27216.3  3252.08
    6446.95  49189.7  27852.8  3345.93
    6455.43  49652.7  28539.4  3457.9
    6463.93  50174.7  29268  3570.97
    6472.55  50628.8  29986.7  3676.17
    6481.28  51104  30717.4  3787.48
    6490.03  51602.4  31492.2  3904.91
    6498.9  52074.8  32260  4012.45
    6507.79  52588.4  33048.8  4131.11
    6516.8  53018  33810.7  4251.89
    6525.92  53476.8  34599.6  4384.77
    6535.07  53960.6  35407.6  4511.78
    6544.25  54395.6  36208.6  4632.9
    6553.54  54855.6  37028.7  4753.14
    6562.95  55281.8  37846.7  4881.5
    6572.4  55749.1  38703.9  5014.97
    6581.96  56227.4  39590  5161.55
    6591.55  56687.9  40495.3  5310.26
    6601.26  57180.5  41418.5  5461.07
    6611.09  57633.2  42358.8  5614.01
    6620.95  58120  43327.2  5762.06
    6630.85  58580.8  44291.6  5919.22
    6640.87  58923.8  45211  6079.5
    6650.92  59364.9  46222.4  6254.9
    6661.1  59816.1  47259  6429.41
    6671.31  60218.4  48267.5  6601.04
    6681.64  60607.8  49294.1  6770.79
    6692.01  60808.4  50183.7  6926.65
    6702.51  57895  48399.4  6713.62
    6713.04  62528.7  53136.1  7401.72
    6723.7  62525.5  53929.9  7547.92
    6734.4  62606.4  54819.7  7712.24
    6745.14  63134.5  56091.5  7933.68
    6756  62544.6  56416.4  8029.24
    6766.91  64110.9  58667.3  8391.91
    6777.94  64591.2  59978.3  8622.7
    6789.02  64617.6  60891.3  8798.61
    6800.23  64315.2  61503.4  8942.62
    6811.48  66898.8  64938.4  9488.76
    6822.77  66323.6  65310.6  9593
    6834.19  66483.5  66450.8  9807.37
    6845.66  66807.4  67782  10059.9
    6857.16  67087.5  69098.2  10314.5
    6868.81  67345.7  70427.5  10574.2
    6880.5  67667.9  71852.9  10838
    6892.33  67950.3  73258.3  11106.9
    6904.2  68235.8  74705.7  11387
    6916.11  68402.4  76017.2  11654.2
    6928.18  68588.1  77403.7  11926.5
    6940.28  68871.9  78919.2  12234.9
    6952.43  69080.8  80363.8  12518.4
    6964.62  69338.8  81894.4  12828
    6976.96  69627.9  83454.1  13138.8
    6989.35  69807.1  84906.8  13420.7
    7001.88  70067.4  86460.6  13741.7
    7014.47  70247.8  87958.4  14049.8
    7027.1  70396.3  89452.2  14359
    7039.77  70571  90988.1  14673.3
    7052.6  70677.7  92467.1  14989.8
    7065.48  70781.5  93960  15302.4
    7078.41  70963.5  95544  15643
    7091.39  71079.5  97091.1  15975.8
    7104.53  71245.6  98719.2  16332.8
    7111.06  71306.5  99522.5  16502.5