File: data/Cr/k2cr2o7_rt_003.xdi
# XDI/1.0
# Column.1: energy eV
# Column.2: i0
# Column.3: itrans
# Column.4: irefer
# Beamline.name: SSRL 2-3
# Beamline.notes: vert slits = 0.6mm
# Detector.I0: N2 15cm
# Detector.I1: N2 30cm
# Detector.I2: N2 15cm
# Element.edge: K
# Element.symbol: Cr
# Mono.d_spacing: 3.13550
# Mono.name: Si(111)
# Mono.notes: unfocused, detuned 75%, clockwise at E=5990eV
# Sample.formula: K2Cr2O7
# Sample.name: K2Cr2O7
# Sample.prep: powder on tape (6 layers)
# Sample.reference: Cr foil
# Sample.temperature: room temp
# Scan.start_time: 1997-04-17 18:36:45
# ///
#    Note: mono d_spacing is nominal!
#     exafs to K16
#     396  E XMU XMUR I0
#-------------
#   energy   i0   itrans  irefer
    5759.99  25720.9  8986.5  1142.7
    5780.01  25627.9  9338.5  1201.7
    5799.97  25559.9  9716.5  1265.7
    5820  25471.9  10092.5  1332.7
    5839.97  25357.9  10469.5  1398.7
    5860.02  25276.9  10865.5  1469.7
    5879.99  25167.9  11267.5  1542.7
    5899.97  25065.9  11677.5  1616.7
    5920.02  24942.9  12078.5  1692.7
    5939.99  24803.9  12473.5  1767.7
    5959.97  24688.9  12875.5  1843.7
    5970.49  24593.9  13072.5  1881.7
    5971.53  24514.9  13048.5  1878.7
    5972.49  24262.9  12936.5  1862.7
    5973.53  24357.9  13005.5  1874.7
    5974.5  24627.9  13170.5  1897.7
    5975.46  24639.9  13198.5  1902.7
    5976.51  24630.9  13220.5  1907.7
    5977.47  24645.9  13239.5  1911.7
    5978.52  24633.9  13259.5  1913.7
    5979.48  24626.9  13274.5  1916.7
    5980.53  24617.9  13283.5  1918.7
    5981.49  24614.9  13306.5  1920.7
    5982.46  24626.9  13327.5  1927.7
    5983.51  24630.9  13343.5  1927.7
    5984.48  24654.9  13369.5  1931.7
    5985.52  24611.9  13349.5  1928.7
    5986.49  24079.9  13072.5  1883.7
    5987.46  21832.9  11854.5  1705.7
    5988.51  22610.9  12275.5  1759.7
    5989.48  23744.9  12866.5  1830.7
    5990.53  24179.9  13040.5  1804.7
    5991.5  24285.9  12955.5  1696.7
    5992.47  24332.9  12577.5  1583.7
    5993.52  24349.9  11279.5  1376.7
    5994.49  24393.9  8938.5  1064.7
    5995.47  24373.9  6741.5   789.7
    5996.51  24376.9  9814.5  1141.7
    5997.49  24348.9  11644.5  1354.7
    5998.54  24379.9  12251.5  1412.7
    5999.51  24326.9  12330.5  1383.7
    6000.49  24319.9  12173.5  1315.7
    6001.46  24140.9  11753.5  1219.7
    6002.51  23989.9  11285.5  1129.7
    6003.49  24225.9  11084.5  1083.7
    6004.47  24337.9  10941.5  1045.7
    6005.52  24317.9  10667.5   999.7
    6006.5  24310.9  10207.5   940.7
    6007.47  24292.9  9655.5   873.7
    6008.53  24328.9  9001.5   798.7
    6009.5  24294.9  8243.5   718.701
    6010.94  24301.7  7242.26   613.465
    6012.82  24274.8  6551.3   564.581
    6014.78  24325  6309.38   573.812
    6016.81  24307.3  6146.51   565.16
    6018.93  24351.7  6088.67   550.624
    6021.12  24357.2  6113.88   546.203
    6023.39  24422.8  6072.13   543.897
    6025.73  24467.6  5919.43   537.708
    6028.16  24564.4  5811.76   520.635
    6030.58  24611.3  5720.13   504.678
    6033.16  24675.4  5666.55   492.837
    6035.82  24766.5  5677.01   495.111
    6038.56  24832.8  5712.51   495.501
    6041.37  24939.1  5820.06   500.008
    6044.26  25024.6  6004.64   519.63
    6047.24  25139.1  6249.26   545.368
    6050.29  25253.8  6489.93   573.221
    6053.42  25386.5  6744.64   607.191
    6056.56  25532.4  7007.4   646.277
    6059.85  25616.4  7281.18   683.478
    6063.22  25687.4  7428.02   701.795
    6066.68  25847.6  7572.9   709.229
    6070.13  26002.9  7696.82   705.777
    6073.75  26191.3  7825.78   701.442
    6077.37  26374.8  7929.78   723.222
    6081.15  26551.4  8007.82   750.119
    6084.93  26748.1  8070.91   779.131
    6088.8  26942.9  8131.04   788.261
    6092.83  27144.8  8206.2   767.503
    6096.86  27359.8  8303.42   743.864
    6100.98  27581.9  8398.66   732.338
    6105.18  27801.1  8481.96   748.931
    6109.46  28027.4  8569.3   789.638
    6113.83  28273.8  8661.68   833.462
    6118.28  28537.4  8764.09   856.401
    6122.74  28782  8877.56   864.456
    6127.36  29068.7  9020.05   880.626
    6131.99  29338.6  9178.61   906.915
    6136.79  29623.5  9386.19   935.316
    6141.59  29935.6  9620.82   956.834
    6146.48  30217.7  9865.48   978.47
    6151.46  30517  10135.2   993.219
    6156.53  30802.3  10403.9  1016.08
    6161.6  31120.8  10682.7  1031.07
    6166.84  31455.3  10957.6  1038.17
    6172.1  31787  11225.5  1079.38
    6177.52  32103.8  11493.4  1134.71
    6182.95  32444.7  11756.3  1187.15
    6188.47  32793.6  12028.3  1229.71
    6194.08  33135.7  12298.4  1263.39
    6199.7  33498.9  12565.5  1299.19
    6205.5  33854.2  12844.6  1336.09
    6211.3  34256.6  13139.8  1382.12
    6217.2  34596.1  13413  1427.26
    6223.19  34955.7  13703.2  1452.52
    6229.2  35345.4  14005.5  1469.89
    6235.38  35622.2  14257.9  1475.38
    6241.56  35301.1  14270.3  1461.98
    6247.85  36370.1  14853.7  1525.7
    6254.23  36859.2  15221.1  1594.54
    6260.71  37298.5  15572.6  1675.49
    6267.2  37662.8  15921.2  1720.55
    6273.79  38091.2  16310.8  1770.74
    6280.48  38497.8  16713.4  1827.04
    6287.26  38929.4  17139.1  1876.45
    6294.06  39324.1  17556.8  1930.98
    6300.95  39732  17987.5  1995.63
    6307.95  40183.9  18446.3  2060.39
    6315.05  40617  18893.2  2116.27
    6322.16  41043.1  19351.1  2161.26
    6329.38  41499.4  19839  2209.38
    6336.69  41944.8  20330.9  2264.6
    6344.11  42396.2  20822  2333.94
    6351.55  42821.8  21320  2410.4
    6359.09  43237.5  21823.1  2485.97
    6366.65  43740.3  22372.2  2577.66
    6374.31  44166.1  22890.4  2662.47
    6382.07  44611.1  23421.6  2733.39
    6389.95  45056.2  23972.9  2807.43
    6397.84  45466.4  24497.2  2882.58
    6405.84  45942.7  25072.5  2959.85
    6413.95  46408.1  25666.9  3040.23
    6422.08  46834.6  26245.3  3126.73
    6430.32  47177.2  26799.8  3203.35
    6438.58  47656.9  27448.3  3282.08
    6446.95  48119.7  28110.8  3374.93
    6455.43  48466.7  28721.4  3474.89
    6463.93  48994.7  29462  3588.98
    6472.55  49384.8  30130.7  3690.17
    6481.28  49871  30874.4  3803.48
    6490.03  50298.4  31609.2  3918.91
    6498.9  50764.8  32377  4029.45
    6507.79  51171.4  33124.8  4137.11
    6516.8  51603  33899.7  4264.89
    6525.92  52057.8  34712.6  4390.77
    6535.07  52474.6  35519.6  4519.78
    6544.25  52875.6  36316.6  4638.9
    6553.54  53181.6  37066.7  4749.15
    6562.95  53632.8  37938.7  4883.5
    6572.4  54021.1  38754.9  5019.97
    6581.96  54391.4  39586.1  5157.56
    6591.55  54891.9  40508.3  5306.25
    6601.26  55221.5  41334.5  5444.07
    6611.09  55681.2  42286.8  5599.01
    6620.95  56082  43201.2  5750.06
    6630.85  56520.8  44146.6  5903.22
    6640.87  56851.8  45052  6056.5
    6650.92  57217.9  45990.4  6216.9
    6661.1  57638.1  46979.9  6384.41
    6671.31  57928.4  47886.5  6545.04
    6681.64  58266.8  48863.1  6710.79
    6692.01  58385.4  49673.7  6855.64
    6702.51  55886  48227.4  6689.62
    6713.04  60243.7  52773.1  7349.71
    6723.7  60135.5  53459.9  7481.92
    6734.4  60160.4  54300.7  7632.24
    6745.14  60657.5  55561.5  7856.69
    6756  57970.6  53904.4  7660.24
    6766.91  61465.9  58020.3  8291.91
    6777.94  61858.2  59270.3  8509.7
    6789.02  61832.6  60112.3  8682.6
    6800.23  61468.2  60652.4  8809.62
    6811.48  64331.8  64406.4  9406.75
    6822.77  63401.6  64413.6  9459.01
    6834.19  63454.5  65450.8  9659.38
    6845.66  63694.4  66674  9894.85
    6857.16  63874.5  67854.2  10120.5
    6868.81  64039.7  69044.5  10350.2
    6880.5  64300.9  70374.9  10601
    6892.33  64417.3  71565.3  10832.9
    6904.2  64602.8  72853.7  11091
    6916.11  64745.4  74107.2  11340.2
    6928.18  64840.1  75367.7  11605.5
    6940.28  65048.9  76736.2  11888.9
    6952.43  65194.8  78084.8  12157.4
    6964.62  65376.8  79484.4  12438
    6976.96  65533.9  80879.1  12720.8
    6989.35  65673.1  82276.8  12996.7
    7001.88  65790.4  83638.6  13285.7
    7014.47  65889.8  85002.4  13575.8
    7027.1  65914.3  86275.3  13833
    7039.77  66095  87790.1  14163.3
    7052.6  66186.7  89190.1  14460.8
    7065.48  66256.5  90542  14761.3
    7078.41  66284.5  91893  15056
    7091.39  66356.5  93319.1  15371.8
    7104.53  66375.6  94698.2  15678.7
    7111.06  66374.5  95354.5  15824.5