File: data/Cr/k2cr2o7_15K_001.xdi
# XDI/1.0
# Column.1: energy eV
# Column.2: i0
# Column.3: itrans
# Column.4: irefer
# Beamline.name: SSRL 2-3
# Beamline.notes: vert slits = 0.6mm
# Detector.I0: N2 15cm
# Detector.I1: N2 30cm
# Detector.I2: N2 15cm
# Element.edge: K
# Element.symbol: Cr
# Mono.d_spacing: 3.13550
# Mono.name: Si(111)
# Mono.notes: unfocused, detuned 75%, clockwise at E=5990eV
# Sample.formula: K2Cr2O7
# Sample.name: K2Cr2O7
# Sample.prep: powder on tape (4 layers)
# Sample.reference: Cr foil
# Sample.temperature: 15K
# Scan.start_time: 1997-04-18 12:31:25
# ///
#    Note: mono d_spacing is nominal!
#     exafs to K16
#     396  E XMU XMUR I0
#-------------
#   energy   i0   itrans  irefer
    5759.99  155473  4802.7   614.3
    5780.01  154202  4975.7   642.3
    5799.97  153213  5157.7   674.3
    5820  151606  5325.7   704.3
    5839.97  150461  5510.7   737.3
    5860.02  148864  5681.7   770.3
    5879.99  147735  5876.7   805.3
    5899.97  146235  6054.7   840.3
    5920.02  144782  6238.7   876.3
    5939.99  143459  6427.7   912.3
    5959.97  141960  6602.7   948.3
    5970.49  141112  6684.7   964.3
    5971.53  140758  6686.7   962.3
    5972.49  139276  6625.7   954.3
    5973.53  139380  6643.7   959.3
    5974.5  141129  6737.7   969.3
    5975.46  141291  6752.7   972.3
    5976.51  141039  6755.7   975.3
    5977.47  141006  6763.7   978.3
    5978.52  141078  6777.7   979.3
    5979.48  139979  6736.7   973.3
    5980.53  140235  6757.7   976.3
    5981.49  140097  6759.7   978.301
    5982.46  140300  6777.7   980.3
    5983.51  140367  6792.7   981.3
    5984.48  140451  6801.7   982.3
    5985.52  140986  6827.7   988.3
    5986.49  139078  6741.7   974.3
    5987.46  129470  6278.7   906.3
    5988.51  127224  6173.7   891.3
    5989.48  134415  6506.7   932.3
    5990.53  137727  6636.7   928.3
    5991.5  138381  6606.7   878.3
    5992.47  138625  6440.7   822.3
    5993.52  138634  5846.7   722.3
    5994.49  138508  4757.7   575.3
    5995.47  138403  3377.7   402.3
    5996.51  138538  4606.7   540.3
    5997.49  138481  5783.7   676.3
    5998.54  138074  6158.7   717.3
    5999.51  138344  6258.7   710.301
    6000.49  137931  6176.7   675.3
    6001.46  137280  5982.7   630.3
    6002.51  135645  5699.7   578.3
    6003.49  137177  5584.7   552.3
    6004.47  138128  5511.7   533.3
    6005.52  137902  5399.7   512.3
    6006.5  137939  5192.7   483.3
    6007.47  137681  4907.7   448.3
    6008.53  137683  4589.7   411.3
    6009.5  137565  4180.7   369.3
    6010.94  137667  3610.46   312.064
    6012.82  137299  3212.51   281.181
    6014.78  137176  3093.62   284.415
    6016.81  137395  3014.78   283.765
    6018.93  137492  2980   276.233
    6021.12  136972  3012.27   272.817
    6023.39  136674  3003.6   273.518
    6025.73  137308  2899.98   268.335
    6028.16  137847  2810.41   256.27
    6030.58  138227  2763.91   249.321
    6033.16  138111  2743.45   244.49
    6035.82  139038  2774.05   247.774
    6038.56  139290  2792.7   248.176
    6041.37  139096  2818.41   247.695
    6044.26  140095  2909.17   256.331
    6047.24  140546  3011.99   269.083
    6050.29  141319  3143.86   280.952
    6053.42  141374  3259.78   298.938
    6056.56  142206  3429.76   322.041
    6059.85  142594  3552.79   339.26
    6063.22  142972  3614.88   347.597
    6066.68  143477  3666.03   351.05
    6070.13  143759  3698.22   345.621
    6073.75  144603  3751.47   343.307
    6077.37  145492  3815.78   354.111
    6081.15  146768  3874.14   369.031
    6084.93  147828  3908.55   383.069
    6088.8  147613  3895.02   384.223
    6092.83  148206  3902.55   371.494
    6096.86  149482  3957.12   357.882
    6100.98  150835  4011.75   355.387
    6105.18  152378  4062.44   363.008
    6109.46  153564  4099.18   382.746
    6113.83  155027  4148.98   403.601
    6118.28  156194  4195.83   413.573
    6122.74  157595  4249.73   418.662
    6127.36  158602  4307.69   425.868
    6131.99  159942  4375.7   438.19
    6136.79  160058  4431.77   447.629
    6141.59  161580  4531.89   458.185
    6146.48  163034  4635.07   465.858
    6151.46  164787  4775.3   473.648
    6156.53  166351  4932.58   486.554
    6161.6  167030  5035.92   490.578
    6166.84  168895  5163.31   490.718
    6172.1  170172  5262.76   508.975
    6177.52  171593  5381.27   535.349
    6182.95  173550  5517.83   561.839
    6188.47  174332  5619.43   578.447
    6194.08  176230  5745.1   596.17
    6199.7  177427  5852.82   609.012
    6205.5  179121  5967.6   621.97
    6211.3  179720  6051.42   638.044
    6217.2  181628  6189.31   660.236
    6223.19  183762  6333.25   673.544
    6229.2  185628  6469.24   681.97
    6235.38  186878  6583.28   681.512
    6241.56  185359  6601.39   677.171
    6247.85  189522  6828.54   701.946
    6254.23  191798  6987.75   732.839
    6260.71  193943  7137.02   768.848
    6267.2  194511  7237.34   783.975
    6273.79  196746  7417.71   807.217
    6280.48  199028  7614.13   833.576
    6287.26  200794  7792.62   853.053
    6294.06  202340  7972.15   878.646
    6300.95  202039  8082.74   895.357
    6307.95  204724  8317.39   934.185
    6315.05  206598  8513.08   958.127
    6322.16  208085  8688.84   968.188
    6329.38  209819  8871.65   989.366
    6336.69  211262  9057.51  1012.66
    6344.11  213225  9261.43  1039.07
    6351.55  215751  9495.4  1073.6
    6359.09  217381  9704.43  1105.24
    6366.65  219092  9930.51  1146.01
    6374.31  220693  10155.6  1181.88
    6382.07  221790  10333.8  1208.88
    6389.95  223347  10546.1  1236.99
    6397.84  225198  10770.4  1271.22
    6405.84  226859  10999.7  1303.57
    6413.95  228174  11202.1  1336.03
    6422.08  229805  11433.6  1373.61
    6430.32  231137  11659.1  1401.3
    6438.58  232184  11875.7  1428.12
    6446.95  234288  12163.3  1471.05
    6455.43  235719  12432  1515.09
    6463.93  237102  12693.7  1556.26
    6472.55  238158  12939.5  1597.54
    6481.28  238636  13170.3  1628.93
    6490.03  240145  13454.2  1676.45
    6498.9  242126  13769.2  1723.08
    6507.79  243400  14056.2  1763.83
    6516.8  244101  14309.3  1809.69
    6525.92  243840  14520.4  1846.67
    6535.07  245237  14824.5  1895.77
    6544.25  245958  15094.8  1938.98
    6553.54  247774  15436  1983.32
    6562.95  249039  15755.4  2033.77
    6572.4  250763  16096.8  2088.33
    6581.96  251589  16379.2  2134.01
    6591.55  252406  16678.7  2184.81
    6601.26  253335  16987.2  2239.73
    6611.09  255332  17364.8  2297.76
    6620.95  255039  17601.5  2340.91
    6630.85  257174  18001.2  2407.18
    6640.87  257943  18328  2465.56
    6650.92  258356  18636.8  2520.06
    6661.1  254565  18626.7  2529.68
    6671.31  255456  18966.6  2599.41
    6681.64  255766  19273.6  2652.26
    6692.01  255264  19515.6  2699.23
    6702.51  245031  19000.7  2636.31
    6713.04  266047  20957.9  2924.51
    6723.7  262001  20962.1  2940.83
    6734.4  260796  21193.3  2981.26
    6745.14  262625  21675.6  3063.82
    6756  257144  21553  3062.48
    6766.91  269098  22892.4  3271.27
    6777.94  270208  23345.9  3357.17
    6789.02  266872  23413.4  3378.19
    6800.23  264415  23554  3419.32
    6811.48  279917  25311.6  3693.58
    6822.77  273831  25127.3  3681.95
    6834.19  272623  25400.1  3745.43
    6845.66  272341  25764.9  3818.03
    6857.16  272202  26143.7  3898.75
    6868.81  271839  26524.7  3968.59
    6880.5  271849  26946.6  4055.54
    6892.33  273208  27490.6  4169.61
    6904.2  272468  27849.7  4249.8
    6916.11  272305  28263.8  4330.11
    6928.18  272111  28691  4424.52
    6940.28  272448  29175.2  4521.06
    6952.43  271807  29554.5  4614.72
    6964.62  271680  30003.9  4707.48
    6976.96  271777  30478.3  4797.38
    6989.35  271975  30969.7  4899.38
    7001.88  273281  31604.2  5028.5
    7014.47  272477  31993.8  5123.74
    7027.1  273140  32551.4  5239.09
    7039.77  272704  32990.1  5335.57
    7052.6  271743  33386.8  5426.16
    7065.48  271417  33829.6  5531.86
    7078.41  268157  33919.4  5561.68
    7091.39  269509  34586.3  5692.62
    7104.53  271354  35337.3  5851.68
    7111.06  272091  35690.5  5925.5