File: data/Cr/na2cro4_100K_001.xdi
# XDI/1.0
# Column.1: energy eV
# Column.2: i0
# Column.3: itrans
# Column.4: irefer
# Beamline.name: SSRL 2-3
# Beamline.notes: vert slits = 0.6mm
# Detector.I0: N2 15cm
# Detector.I1: N2 30cm
# Detector.I2: N2 15cm
# Element.edge: K
# Element.symbol: Cr
# Mono.d_spacing: 3.13550
# Mono.name: Si(111)
# Mono.notes: unfocused, detuned 75%, clockwise at E=5990eV
# Sample.formula: Na2CrO4
# Sample.name: Na2CrO4
# Sample.prep: powder on tape (5 layers)
# Sample.reference: Cr foil
# Sample.temperature: 100K
# Scan.start_time: 1997-04-18 19:10:23
# ///
#    Note: mono d_spacing is nominal!
#     exafs to K16
#     396  E XMU XMUR I0
#-------------
#   energy   i0   itrans  irefer
    5759.99  217667  15041.7  1917.3
    5780.01  217085  15548.7  2006.3
    5799.97  216638  16077.7  2103.3
    5820  216216  16626.7  2201.3
    5839.97  216074  17208.7  2304.3
    5860.02  215653  17775.7  2411.3
    5879.99  215145  18343.7  2518.3
    5899.97  214534  18925.7  2629.3
    5920.02  214081  19517.7  2744.3
    5939.99  213240  20083.7  2854.3
    5959.97  212696  20665.7  2965.3
    5970.49  211984  20931.7  3018.3
    5971.53  210352  20796.7  3004.3
    5972.49  208416  20632.7  2980.3
    5973.53  211176  20936.7  3026.3
    5974.5  212090  21054.7  3044.3
    5975.46  212137  21098.7  3052.3
    5976.51  212171  21134.7  3057.3
    5977.47  212168  21155.7  3063.3
    5978.52  212105  21178.7  3069.3
    5979.48  212345  21236.7  3077.3
    5980.53  212128  21238.7  3076.3
    5981.49  212472  21310.7  3087.3
    5982.46  212292  21315.7  3088.3
    5983.51  212664  21382.7  3097.3
    5984.48  212445  21377.7  3096.3
    5985.52  211041  21274.7  3079.3
    5986.49  199742  20144.7  2913.3
    5987.46  184056  18582.7  2682.3
    5988.51  201517  20363.7  2922.3
    5989.48  207606  20978.7  2968.3
    5990.53  209323  21120.7  2841.3
    5991.5  209849  21070.7  2704.3
    5992.47  210205  20848.7  2588.3
    5993.52  210239  19842.7  2395.3
    5994.49  210342  17477.7  2067.3
    5995.47  210190  18564.7  2172.3
    5996.51  210420  20539.7  2397.3
    5997.49  210213  20902.7  2436.3
    5998.54  210466  20953.7  2393.3
    5999.51  210230  20779.7  2290.3
    6000.49  209389  20445.7  2164.3
    6001.46  207100  19957.7  2037.3
    6002.51  207966  19793.7  1957.3
    6003.49  209853  19678.7  1903.3
    6004.47  209892  19305.7  1830.3
    6005.52  210004  18839.7  1750.3
    6006.5  209871  18314.7  1671.3
    6007.47  209792  17741.7  1590.3
    6008.53  209759  17110.7  1506.3
    6009.5  209722  16633.7  1436.3
    6010.94  209675  16138.4  1371.06
    6012.82  209607  15884.5  1394.18
    6014.78  209873  15902.6  1459.41
    6016.81  210092  15949.8  1472.77
    6018.93  209995  15921  1440.23
    6021.12  210373  15902.3  1417.82
    6023.39  210884  15881.6  1426.52
    6025.73  211299  15900  1438.33
    6028.16  211763  16009.4  1425.27
    6030.58  212263  16188.9  1421.32
    6033.16  213050  16402.4  1431.49
    6035.82  213507  16545  1443.77
    6038.56  214651  16713.7  1449.18
    6041.37  215674  16903.4  1455.7
    6044.26  216459  17151.2  1487.33
    6047.24  217450  17437  1525.08
    6050.29  218650  17666.9  1563.95
    6053.42  219728  17949.8  1623.94
    6056.56  220960  18254.8  1689.04
    6059.85  222206  18542.8  1738.26
    6063.22  222533  18722.9  1765.6
    6066.68  223994  18971  1767.05
    6070.13  225726  19218.2  1750.62
    6073.75  227274  19426.5  1743.31
    6077.37  228749  19626.8  1794.11
    6081.15  230438  19858.1  1868.03
    6084.93  232490  20136.6  1945.07
    6088.8  234532  20435  1973.22
    6092.83  236031  20726.5  1924.49
    6096.86  237703  21019.1  1869.88
    6100.98  240139  21361.8  1854.39
    6105.18  242578  21676.4  1917.01
    6109.46  244785  21942.2  2034.74
    6113.83  247198  22247  2142.6
    6118.28  249325  22553.8  2199.57
    6122.74  251525  22877.7  2220.66
    6127.36  254132  23268.7  2261.87
    6131.99  256484  23662.7  2333.19
    6136.79  258994  24097.8  2394.63
    6141.59  261730  24556.9  2435.18
    6146.48  264576  25054.1  2473.86
    6151.46  267067  25518.3  2490.65
    6156.53  269969  26038.6  2531.55
    6161.6  272833  26555.9  2545.58
    6166.84  275643  27090.3  2554.72
    6172.1  278985  27696.8  2658.97
    6177.52  281809  28242.3  2786.35
    6182.95  284968  28847.8  2904.84
    6188.47  288049  29445.4  2993.45
    6194.08  291440  30068.1  3076.17
    6199.7  294574  30664.8  3159.01
    6205.5  298250  31304.6  3245.97
    6211.3  301675  31913.4  3350.05
    6217.2  304694  32492.3  3435.23
    6223.19  308005  33110.2  3482.54
    6229.2  311701  33765.2  3514.97
    6235.38  313058  34190.3  3511.51
    6241.56  310943  34236.4  3483.17
    6247.85  322715  35851.5  3656.95
    6254.23  326414  36589.7  3820.84
    6260.71  330319  37371  3998.85
    6267.2  333421  38080.3  4107.97
    6273.79  337332  38912.7  4210.22
    6280.48  341717  39813.1  4334.58
    6287.26  346030  40725.6  4448.05
    6294.06  349849  41598.2  4557.65
    6300.95  353831  42501.8  4698.36
    6307.95  357461  43381.4  4822.18
    6315.05  361788  44361.1  4938.13
    6322.16  365626  45298.8  5023.19
    6329.38  370175  46336.6  5128.37
    6336.69  374325  47326.5  5242.66
    6344.11  378736  48372.4  5394.08
    6351.55  383241  49441.4  5558.6
    6359.09  387496  50480.4  5722.24
    6366.65  391385  51467.5  5908.01
    6374.31  395942  52577.7  6082.89
    6382.07  399937  53644.9  6221.88
    6389.95  404671  54811.1  6382.99
    6397.84  409001  55978.4  6550.22
    6405.84  413647  57185.7  6716.57
    6413.95  417679  58356.1  6884.03
    6422.08  422102  59617.6  7074.61
    6430.32  426678  60893.1  7249.31
    6438.58  431158  62216.7  7412.11
    6446.95  435233  63497.3  7594.05
    6455.43  439695  64871  7823.09
    6463.93  444313  66266.7  8050.25
    6472.55  449266  67791.5  8281.54
    6481.28  453404  69190.4  8505.94
    6490.03  458370  70722.2  8747.45
    6498.9  462933  72240.2  8966.08
    6507.79  467605  73794.2  9199.83
    6516.8  472438  75378.2  9461.69
    6525.92  476971  76953.4  9724.68
    6535.07  481866  78586.6  9988.77
    6544.25  485100  80014.7  10206
    6553.54  488335  81441.1  10424.3
    6562.95  492526  83031.4  10678.8
    6572.4  496953  84709.8  10954.3
    6581.96  502895  86688.2  11280
    6591.55  507491  88452.7  11578.8
    6601.26  511365  90112.2  11861.7
    6611.09  516270  91975.8  12165.8
    6620.95  520769  93840.5  12473.9
    6630.85  524031  95477.2  12755.2
    6640.87  528655  97436.9  13076.6
    6650.92  532579  99231.8  13402.1
    6661.1  536359  101053  13715.7
    6671.31  541684  103213  14085.4
    6681.64  545124  105021  14400.3
    6692.01  549226  106994  14747.2
    6702.51  523930  103408  14316.3
    6713.04  563851  112344  15621.5
    6723.7  564896  113820  15906.8
    6734.4  566326  115405  16225.3
    6745.14  571182  117740  16631.8
    6756  570475  118932  16890.5
    6766.91  580713  122465  17484.3
    6777.94  585008  124801  17916.2
    6789.02  586917  126636  18281.2
    6800.23  585093  127689  18533.3
    6811.48  605069  133568  19492.6
    6822.77  602966  134658  19756.9
    6834.19  605170  136711  20161.4
    6845.66  608399  139022  20599
    6857.16  611795  141419  21056.7
    6868.81  615853  144028  21569.6
    6880.5  619262  146481  22056.5
    6892.33  621569  148769  22518.6
    6904.2  625771  151508  23049.8
    6916.11  628883  154032  23566.1
    6928.18  631119  156366  24052.5
    6940.28  634886  159171  24609.1
    6952.43  637741  161684  25141.7
    6964.62  639883  164129  25647.5
    6976.96  643520  166905  26212.4
    6989.35  646159  169501  26758.4
    7001.88  649153  172245  27326.5
    7014.47  652055  174961  27898.7
    7027.1  654668  177654  28470.1
    7039.77  657490  180390  29063.6
    7052.6  659810  183056  29655.1
    7065.48  662721  185911  30277.9
    7078.41  665463  188779  30905.7
    7091.39  667465  191453  31495.6
    7104.53  669773  194218  32131.7
    7111.06  670383  195494  32422.5