File: data/Cr/na2cro4_rt_002.xdi
# XDI/1.0
# Column.1: energy eV
# Column.2: i0
# Column.3: itrans
# Column.4: irefer
# Beamline.name: SSRL 2-3
# Beamline.notes: vert slits = 0.6mm
# Detector.I0: N2 15cm
# Detector.I1: N2 30cm
# Detector.I2: N2 15cm
# Element.edge: K
# Element.symbol: Cr
# Mono.d_spacing: 3.13550
# Mono.name: Si(111)
# Mono.notes: unfocused, detuned 75%, clockwise at E=5990eV
# Sample.formula: Na2CrO4
# Sample.name: Na2CrO4
# Sample.prep: powder on tape (4 layers)
# Sample.reference: Cr foil
# Sample.temperature: room temp
# Scan.start_time: 1997-04-17 23:39:33
# ///
#    Note: mono d_spacing is nominal!
#     exafs to K16
#     396  E XMU XMUR I0
#-------------
#   energy   i0   itrans  irefer
    5759.99  24927.9  18172.5  2309.7
    5780.01  24856.9  18770.5  2418.7
    5799.97  24784.9  19392.5  2529.7
    5820  24727.9  20035.5  2643.7
    5839.97  24674.9  20694.5  2765.7
    5860.02  24615.9  21359.5  2889.7
    5879.99  24543.9  22023.5  3015.7
    5899.97  24457.9  22692.5  3144.7
    5920.02  24355.9  23349.5  3272.7
    5939.99  24260.9  24006.5  3403.7
    5959.97  24179.9  24677.5  3533.7
    5970.49  24112.9  25003.5  3599.7
    5971.53  23922.9  24836.5  3577.7
    5972.49  23766.9  24704.5  3556.7
    5973.53  24017.9  25000.5  3603.7
    5974.5  24150.9  25180.5  3627.7
    5975.46  24142.9  25200.5  3632.7
    5976.51  24155.9  25253.5  3641.7
    5977.47  24134.9  25275.5  3643.7
    5978.52  24150.9  25316.5  3651.7
    5979.48  24126.9  25332.5  3654.7
    5980.53  24154.9  25395.5  3664.7
    5981.49  24134.9  25418.5  3664.7
    5982.46  24171.9  25473.5  3675.7
    5983.51  24162.9  25500.5  3681.7
    5984.48  24183.9  25555.5  3685.7
    5985.52  23988.9  25390.5  3661.7
    5986.49  22979.9  24326.5  3502.7
    5987.46  20895.9  22131.5  3181.7
    5988.51  22852.9  24231.5  3465.7
    5989.48  23520.9  24939.5  3522.7
    5990.53  23790.9  25174.5  3392.7
    5991.5  23845.9  25101.5  3222.7
    5992.47  23889.9  24820.5  3080.7
    5993.52  23880.9  23585.5  2846.7
    5994.49  23910.9  20367.5  2408.7
    5995.47  23905.9  21161.5  2471.7
    5996.51  23907.9  24153.5  2811.7
    5997.49  23901.9  24787.5  2881.7
    5998.54  23899.9  24877.5  2846.7
    5999.51  23871.9  24656.5  2721.7
    6000.49  23832.9  24283.5  2576.7
    6001.46  23598.9  23684.5  2419.7
    6002.51  23600.9  23371.5  2315.7
    6003.49  23845.9  23270.5  2252.7
    6004.47  23879.9  22854.5  2168.7
    6005.52  23873.9  22241.5  2069.7
    6006.5  23863.9  21586.5  1973.7
    6007.47  23865.9  20832.5  1870.7
    6008.53  23855.9  19977.5  1759.7
    6009.5  23856.9  19349.5  1675.7
    6010.94  23854.7  18661.3  1583.46
    6012.82  23863.8  18221.3  1591.58
    6014.78  23852  18148.4  1661.81
    6016.81  23899.3  18190.5  1681.16
    6018.93  23912.7  18117.7  1638.62
    6021.12  23964.2  18109.9  1612.2
    6023.39  23994.8  18110.1  1627.9
    6025.73  24062.6  18097.4  1637.71
    6028.16  24104.4  18167.8  1618.64
    6030.58  24188.3  18385.1  1617.68
    6033.16  24263.4  18587.6  1623.84
    6035.82  24332.5  18712  1633.11
    6038.56  24440.8  18832.5  1634.5
    6041.37  24498.1  18986.1  1636.01
    6044.26  24624.6  19391.6  1681.63
    6047.24  24726.1  19811.3  1732.37
    6050.29  24843.8  20105.9  1781.22
    6053.42  24994.5  20460.6  1850.19
    6056.56  25112.4  20813.4  1924.28
    6059.85  25235.4  21148.2  1984.48
    6063.22  25315.4  21394  2020.8
    6066.68  25455.6  21674.9  2022.23
    6070.13  25627.9  21953.8  2002.78
    6073.75  25828.3  22225.8  1991.44
    6077.37  26001.8  22450.8  2049.22
    6081.15  26212.4  22732.8  2137.12
    6084.93  26418.1  23003.9  2221.13
    6088.8  26589.9  23290  2249.26
    6092.83  26821.8  23660.2  2198.5
    6096.86  27056.8  24024.4  2135.86
    6100.98  27275.9  24358.7  2110.34
    6105.18  27516.1  24664  2176.93
    6109.46  27781.4  24963.3  2307.64
    6113.83  28028.8  25275.7  2430.46
    6118.28  28275.4  25623.1  2494.4
    6122.74  28530  25994.6  2522.46
    6127.36  28798.7  26389.1  2564.63
    6131.99  29088.6  26858.6  2644.91
    6136.79  29388.5  27388.2  2720.32
    6141.59  29674.6  27918.8  2766.83
    6146.48  29956.7  28447.5  2805.47
    6151.46  30246  29004.2  2827.22
    6156.53  30557.3  29588.9  2876.08
    6161.6  30865.8  30175.7  2890.07
    6166.84  31189.3  30808.6  2904.17
    6172.1  31510  31431.5  3014.38
    6177.52  31829.8  32075.4  3161.71
    6182.95  32191.7  32767.3  3299.15
    6188.47  32516.6  33417.3  3392.71
    6194.08  32856.7  34078.4  3480.39
    6199.7  33224.9  34766.5  3578.18
    6205.5  33586.2  35448.6  3673.09
    6211.3  33950.6  36115.8  3788.12
    6217.2  34322.1  36808  3890.26
    6223.19  34708.7  37507.2  3944.52
    6229.2  35090.4  38215.5  3974.89
    6235.38  35287.2  38735.9  3974.38
    6241.56  35004.1  38734.3  3938.98
    6247.85  36257.1  40486.7  4127.7
    6254.23  36663.2  41315.1  4309.54
    6260.71  37110.5  42202.6  4516.49
    6267.2  37516.8  43082.2  4642.55
    6273.79  37942.2  44001.8  4755.74
    6280.48  38359.8  44934.4  4888.04
    6287.26  38793.4  45921.1  5007.45
    6294.06  39245.1  46928.8  5136.98
    6300.95  39613  47849.5  5288.63
    6307.95  40070.9  48930.3  5435.39
    6315.05  40547  50049.2  5569.27
    6322.16  41000.1  51130.1  5665.26
    6329.38  41501.4  52271  5784.38
    6336.69  41929.8  53351  5911.6
    6344.11  42403.2  54521  6074.95
    6351.55  42888.8  55692  6260.4
    6359.09  43337.5  56825.1  6445.98
    6366.65  43820.3  57998.2  6657.66
    6374.31  44271.1  59177.4  6844.47
    6382.07  44707.1  60360.6  7002.39
    6389.95  45179.2  61608.9  7176.43
    6397.84  45670.4  62915.2  7365.58
    6405.84  46146.7  64224.5  7541.84
    6413.95  46657.1  65622.9  7736.23
    6422.08  47120.6  67006.3  7947.73
    6430.32  47554.2  68357.8  8138.35
    6438.58  48005.9  69760.3  8311.08
    6446.95  48530.7  71301.8  8530.93
    6455.43  48970.7  72742.4  8772.89
    6463.93  49497.7  74402  9041.97
    6472.55  49948.8  75892.7  9271.17
    6481.28  50456  77562.4  9531.48
    6490.03  50934.4  79175.2  9788.91
    6498.9  51407.8  80808  10026.5
    6507.79  51906.4  82510.8  10280.1
    6516.8  52301  84085.7  10545.9
    6525.92  52815.8  85852.6  10838.8
    6535.07  53322.6  87659.6  11128.8
    6544.25  53700.6  89239.6  11377.9
    6553.54  54124.6  90943.7  11630.1
    6562.95  54584.8  92731.7  11907.5
    6572.4  55086.1  94618.9  12218
    6581.96  55543.4  96446.1  12522.6
    6591.55  56026.9  98384.3  12854.3
    6601.26  56453.5  100248  13165.1
    6611.09  56928.2  102235  13493
    6620.95  57427  104279  13829.1
    6630.85  57858.8  106262  14165.2
    6640.87  58296.8  108281  14513.5
    6650.92  58684.9  110237  14860.9
    6661.1  59161.1  112352  15233.4
    6671.31  59584.4  114396  15592
    6681.64  59936.8  116385  15935.8
    6692.01  60204.4  118188  16265.6
    6702.51  57272  113759  15732.6
    6713.04  61969.7  124483  17292.7
    6723.7  62008.5  125936  17581.9
    6734.4  62056.4  127502  17898.2
    6745.14  62617.5  130117  18361.7
    6756  62265.6  130865  18577.2
    6766.91  63633.9  135256  19301.9
    6777.94  64114.2  137870  19772.7
    6789.02  64182.6  139552  20128.6
    6800.23  63958.2  140624  20399.6
    6811.48  66479.8  147886  21562.8
    6822.77  66007.6  148572  21780
    6834.19  66204.5  150714  22208.4
    6845.66  66499.4  153117  22670.9
    6857.16  66819.5  155628  23158.5
    6868.81  67070.7  158040  23648.2
    6880.5  67347.9  160574  24156
    6892.33  67670.3  163200  24685.9
    6904.2  67916.8  165686  25200
    6916.11  68032.4  167903  25674.2
    6928.18  67978.1  169752  26100.5
    6940.28  68254.9  172366  26655.9
    6952.43  68432.8  174858  27185.4
    6964.62  68707.8  177497  27742
    6976.96  68943.9  180176  28299.8
    6989.35  69170.1  182902  28871.7
    7001.88  69421.4  185685  29464.7
    7014.47  69665.8  188374  30041.8
    7027.1  69836.3  190967  30605
    7039.77  70111  193875  31242.3
    7052.6  70258.7  196443  31824.8
    7065.48  70448.5  199123  32439.4
    7078.41  70616.5  201802  33032
    7091.39  70777.5  204509  33662.8
    7104.53  70880.6  207119  34257.7
    7111.06  70937.5  208420  34557.5