File: data/Cr/na2cro4_rt_001.xdi
# XDI/1.0
# Column.1: energy eV
# Column.2: i0
# Column.3: itrans
# Column.4: irefer
# Beamline.name: SSRL 2-3
# Beamline.notes: vert slits = 0.6mm
# Detector.I0: N2 15cm
# Detector.I1: N2 30cm
# Detector.I2: N2 15cm
# Element.edge: K
# Element.symbol: Cr
# Mono.d_spacing: 3.13550
# Mono.name: Si(111)
# Mono.notes: unfocused, detuned 75%, clockwise at E=5990eV
# Sample.formula: Na2CrO4
# Sample.name: Na2CrO4
# Sample.prep: powder on tape (4 layers)
# Sample.reference: Cr foil
# Sample.temperature: room temp
# Scan.start_time: 1997-04-17 23:39:33
# ///
#    Note: mono d_spacing is nominal!
#     exafs to K16
#     396  E XMU XMUR I0
#-------------
#   energy   i0   itrans  irefer
    5759.99  25203.9  18364.5  2330.7
    5780.01  25178.9  19016.5  2442.7
    5799.97  25117.9  19653.5  2557.7
    5820  25054.9  20302.5  2675.7
    5839.97  24972.9  20956.5  2795.7
    5860.02  24890.9  21606.5  2914.7
    5879.99  24812.9  22268.5  3041.7
    5899.97  24747.9  22960.5  3172.7
    5920.02  24654.9  23635.5  3307.7
    5939.99  24551.9  24301.5  3438.7
    5959.97  24452.9  24949.5  3565.7
    5970.49  24371.9  25277.5  3631.7
    5971.53  24202.9  25129.5  3613.7
    5972.49  24020.9  24986.5  3593.7
    5973.53  24277.9  25278.5  3637.7
    5974.5  24422.9  25471.5  3665.7
    5975.46  24410.9  25493.5  3669.7
    5976.51  24417.9  25536.5  3677.7
    5977.47  24411.9  25561.5  3682.7
    5978.52  24422.9  25601.5  3692.7
    5979.48  24399.9  25624.5  3692.7
    5980.53  24450.9  25715.5  3708.7
    5981.49  24435.9  25727.5  3709.7
    5982.46  24460.9  25784.5  3718.7
    5983.51  24453.9  25813.5  3722.7
    5984.48  24474.9  25862.5  3730.7
    5985.52  24275.9  25682.5  3701.7
    5986.49  23241.9  24609.5  3541.7
    5987.46  21148.9  22413.5  3220.7
    5988.51  23117.9  24518.5  3505.7
    5989.48  23809.9  25246.5  3565.7
    5990.53  24060.9  25461.5  3432.7
    5991.5  24136.9  25408.5  3261.7
    5992.47  24153.9  25095.5  3118.7
    5993.52  24190.9  23891.5  2883.7
    5994.49  24190.9  20592.5  2437.7
    5995.47  24212.9  21445.5  2504.7
    5996.51  24205.9  24458.5  2848.7
    5997.49  24218.9  25111.5  2922.7
    5998.54  24198.9  25178.5  2882.7
    5999.51  24210.9  25014.5  2761.7
    6000.49  24113.9  24569.5  2607.7
    6001.46  23904.9  23992.5  2455.7
    6002.51  23879.9  23654.5  2344.7
    6003.49  24154.9  23580.5  2285.7
    6004.47  24177.9  23151.5  2198.7
    6005.52  24183.9  22547.5  2100.7
    6006.5  24166.9  21873.5  2003.7
    6007.47  24172.9  21117.5  1899.7
    6008.53  24161.9  20246.5  1786.7
    6009.5  24153.9  19600.5  1698.7
    6010.94  24150.7  18896.3  1602.46
    6012.82  24190.8  18471.3  1612.58
    6014.78  24184  18397.4  1682.81
    6016.81  24222.3  18433.5  1703.16
    6018.93  24245.7  18363.7  1662.62
    6021.12  24281.2  18336.9  1632.2
    6023.39  24327.8  18351.1  1647.9
    6025.73  24394.6  18349.4  1660.71
    6028.16  24431.4  18417.8  1640.63
    6030.58  24516.3  18632.1  1637.68
    6033.16  24584.4  18830.6  1644.84
    6035.82  24668.5  18969  1657.11
    6038.56  24743.8  19059.5  1654.5
    6041.37  24843.1  19250.1  1661.01
    6044.26  24941.6  19638.6  1704.63
    6047.24  25045.1  20061.3  1757.37
    6050.29  25181.8  20372.9  1806.22
    6053.42  25297.5  20691.6  1875.19
    6056.56  25455.4  21100.4  1952.28
    6059.85  25564.4  21422.2  2011.48
    6063.22  25648.4  21688  2047.8
    6066.68  25799.6  21972.9  2053.23
    6070.13  25957.9  22237.8  2029.78
    6073.75  26153.3  22502.8  2020.44
    6077.37  26324.8  22740.8  2079.22
    6081.15  26518.4  22996.8  2165.12
    6084.93  26738.1  23284.9  2255.13
    6088.8  26948.9  23606  2287.26
    6092.83  27135.8  23942.2  2234.5
    6096.86  27372.8  24313.4  2170.86
    6100.98  27602.9  24645.7  2142.34
    6105.18  27836.1  24946  2207.93
    6109.46  28071.4  25219.3  2339.64
    6113.83  28342.8  25568.7  2466.46
    6118.28  28606.4  25927.1  2532.4
    6122.74  28862  26290.6  2558.46
    6127.36  29126.7  26707.1  2603.63
    6131.99  29400.6  27144.6  2681.92
    6136.79  29712.5  27688.2  2757.32
    6141.59  30017.6  28229.8  2806.84
    6146.48  30282.7  28760.5  2841.47
    6151.46  30588  29334.2  2866.22
    6156.53  30912.3  29939.9  2915.08
    6161.6  31244.8  30554.7  2929.07
    6166.84  31562.3  31180.6  2947.17
    6172.1  31880  31806.5  3056.38
    6177.52  32239.8  32494.4  3209.71
    6182.95  32574.7  33140.3  3342.15
    6188.47  32906.6  33826.3  3437.71
    6194.08  33219.7  34463.4  3523.39
    6199.7  33610.9  35169.5  3623.19
    6205.5  33977.2  35843.6  3717.09
    6211.3  34348.6  36535.8  3836.12
    6217.2  34701.1  37200  3937.26
    6223.19  35104.7  37918.2  3988.52
    6229.2  35521.4  38671.5  4025.89
    6235.38  35676.2  39163.9  4025.38
    6241.56  35386.1  39175.3  3988.98
    6247.85  36645.1  40907.7  4176.7
    6254.23  37103.2  41789.1  4362.54
    6260.71  37536.5  42668.6  4569.49
    6267.2  37978.8  43601.2  4702.56
    6273.79  38378.2  44500.8  4816.74
    6280.48  38823.8  45475.4  4951.04
    6287.26  39267.4  46460.1  5072.45
    6294.06  39703.1  47473.8  5202.98
    6300.95  40124  48474.5  5357.63
    6307.95  40513.9  49464.3  5497.39
    6315.05  40969  50558.2  5623.27
    6322.16  41393.1  51603.1  5721.27
    6329.38  41881.4  52757  5836.38
    6336.69  42329.8  53864  5969.6
    6344.11  42798.2  55010  6127.94
    6351.55  43247.8  56121  6309.4
    6359.09  43732.5  57339.1  6500.97
    6366.65  44213.3  58527.2  6716.67
    6374.31  44679.1  59715.4  6907.47
    6382.07  45146.1  60950.6  7072.39
    6389.95  45644.2  62247.9  7252.43
    6397.84  46141.4  63547.2  7442.58
    6405.84  46605.7  64879.5  7617.85
    6413.95  47091.1  66237.9  7810.23
    6422.08  47555.6  67642.3  8025.73
    6430.32  48038.2  69058.8  8221.35
    6438.58  48499.9  70470.3  8399.08
    6446.95  49017.7  72039.8  8616.93
    6455.43  49438.7  73481.4  8862.9
    6463.93  49954.7  75088  9124.98
    6472.55  50463.8  76716.7  9375.17
    6481.28  50951  78326.4  9628.48
    6490.03  51436.4  79959.2  9888.9
    6498.9  51928.8  81665  10129.5
    6507.79  52373.4  83289.8  10378.1
    6516.8  52786  84888.7  10647.9
    6525.92  53268.8  86604.6  10931.8
    6535.07  53720.6  88321.6  11206.8
    6544.25  54157.6  90017.6  11471.9
    6553.54  54549.6  91659.7  11717.1
    6562.95  55026.8  93511.7  12008.5
    6572.4  55521.1  95385.9  12317
    6581.96  55988.4  97291.1  12636.6
    6591.55  56446.9  99131.3  12959.3
    6601.26  56909.5  101092  13281.1
    6611.09  57354.2  103014  13603
    6620.95  57822  105017  13941.1
    6630.85  58228.8  106979  14269.2
    6640.87  58637.8  108915  14614.5
    6650.92  58991.9  110814  14953.9
    6661.1  59528.1  113046  15341.4
    6671.31  59735.4  114687  15641
    6681.64  60167.8  116808  16005.8
    6692.01  60396.4  118565  16331.7
    6702.51  57482  114168  15802.6
    6713.04  62219.7  124938  17369.7
    6723.7  62269.5  126413  17661.9
    6734.4  62320.4  127985  17972.2
    6745.14  62900.5  130657  18444.7
    6756  62412.6  131179  18622.2
    6766.91  63888.9  135738  19373.9
    6777.94  64405.2  138436  19866.7
    6789.02  64490.6  140225  20228.6
    6800.23  64200.2  141158  20481.6
    6811.48  66672.8  148315  21628.7
    6822.77  66237.6  149028  21852
    6834.19  66449.5  151232  22284.4
    6845.66  66696.4  153581  22742.9
    6857.16  67005.5  156059  23232.5
    6868.81  67264.7  158471  23709.2
    6880.5  67564.9  161033  24214
    6892.33  67791.3  163525  24729.9
    6904.2  68126.8  166214  25272
    6916.11  68358.4  168734  25784.2
    6928.18  68532.1  171112  26292.5
    6940.28  68812.9  173828  26866.9
    6952.43  69006.8  176307  27399.4
    6964.62  69287.8  179078  27977.1
    6976.96  69527.9  181755  28553.8
    6989.35  69803.1  184534  29124.7
    7001.88  69989.4  187180  29688.7
    7014.47  70256.8  190018  30306.8
    7027.1  70413.3  192545  30860
    7039.77  70636  195294  31458.3
    7052.6  70793.7  197839  32032.8
    7065.48  70972.5  200597  32648.3
    7078.41  71168.5  203398  33280
    7091.39  71215.5  205823  33841.9
    7104.53  71361.6  208504  34463.8
    7111.06  71348.5  209607  34725.5