File: data/Cr/na2cro4_100K_003.xdi
# XDI/1.0
# Column.1: energy eV
# Column.2: i0
# Column.3: itrans
# Column.4: irefer
# Beamline.name: SSRL 2-3
# Beamline.notes: vert slits = 0.6mm
# Detector.I0: N2 15cm
# Detector.I1: N2 30cm
# Detector.I2: N2 15cm
# Element.edge: K
# Element.symbol: Cr
# Mono.d_spacing: 3.13550
# Mono.name: Si(111)
# Mono.notes: unfocused, detuned 75%, clockwise at E=5990eV
# Sample.formula: Na2CrO4
# Sample.name: Na2CrO4
# Sample.prep: powder on tape (5 layers)
# Sample.reference: Cr foil
# Sample.temperature: 100K
# Scan.start_time: 1997-04-18 19:10:23
# ///
#    Note: mono d_spacing is nominal!
#     exafs to K16
#     396  E XMU XMUR I0
#-------------
#   energy   i0   itrans  irefer
    5759.99  218716  15107.7  1930.3
    5780.01  218482  15652.7  2024.3
    5799.97  218138  16195.7  2122.3
    5820  217663  16736.7  2219.3
    5839.97  217233  17299.7  2323.3
    5860.02  217151  17895.7  2431.3
    5879.99  216447  18452.7  2539.3
    5899.97  215710  19024.7  2647.3
    5920.02  215313  19632.7  2762.3
    5939.99  214473  20192.7  2875.3
    5959.97  213897  20777.7  2990.3
    5970.49  213153  21040.7  3042.3
    5971.53  211934  20953.7  3029.3
    5972.49  209635  20754.7  3002.3
    5973.53  212378  21056.7  3049.3
    5974.5  213627  21212.7  3072.3
    5975.46  213596  21234.7  3078.3
    5976.51  213648  21272.7  3084.3
    5977.47  213719  21315.7  3090.3
    5978.52  213647  21322.7  3091.3
    5979.48  213700  21367.7  3100.3
    5980.53  213723  21394.7  3104.3
    5981.49  213632  21416.7  3107.3
    5982.46  213830  21467.7  3113.3
    5983.51  214176  21533.7  3123.3
    5984.48  213985  21539.7  3125.3
    5985.52  212532  21419.7  3102.3
    5986.49  201043  20278.7  2934.3
    5987.46  185545  18728.7  2706.3
    5988.51  203216  20526.7  2950.3
    5989.48  209420  21160.7  2998.3
    5990.53  210959  21283.7  2867.3
    5991.5  211494  21232.7  2725.3
    5992.47  211944  21022.7  2614.3
    5993.52  211930  20045.7  2424.3
    5994.49  211995  17667.7  2096.3
    5995.47  212149  18660.7  2188.3
    5996.51  212118  20682.7  2417.3
    5997.49  212115  21083.7  2463.3
    5998.54  212217  21138.7  2421.3
    5999.51  212246  20982.7  2321.3
    6000.49  211594  20673.7  2199.3
    6001.46  209189  20175.7  2068.3
    6002.51  209782  19979.7  1983.3
    6003.49  212073  19915.7  1932.3
    6004.47  212307  19564.7  1860.3
    6005.52  212197  19075.7  1780.3
    6006.5  212400  18576.7  1707.3
    6007.47  212182  17989.7  1621.3
    6008.53  212069  17353.7  1533.3
    6009.5  211788  16840.7  1462.3
    6010.94  212505  16390.5  1395.06
    6012.82  212131  16084.5  1411.18
    6014.78  212301  16093.6  1478.42
    6016.81  212861  16170.8  1498.77
    6018.93  212788  16142  1463.23
    6021.12  213247  16125.3  1440.82
    6023.39  213612  16101.6  1451.52
    6025.73  214050  16108  1460.33
    6028.16  214779  16236.4  1450.27
    6030.58  215211  16418.9  1447.32
    6033.16  215834  16625.5  1453.49
    6035.82  216946  16826  1469.77
    6038.56  217595  16957.7  1472.18
    6041.37  218239  17110.4  1476.7
    6044.26  218941  17356.2  1509.33
    6047.24  220044  17657  1548.08
    6050.29  221129  17880.8  1585.95
    6053.42  222411  18181.8  1650.94
    6056.56  223511  18485.8  1714.04
    6059.85  224539  18752.8  1764.26
    6063.22  225405  18973.9  1794.6
    6066.68  226608  19203  1795.05
    6070.13  228253  19445.2  1776.62
    6073.75  229620  19638.5  1766.31
    6077.37  231474  19873.8  1821.11
    6081.15  232868  20076.1  1896.03
    6084.93  234988  20356.5  1974.07
    6088.8  236488  20623  1997.22
    6092.83  238725  20970.5  1955.49
    6096.86  240634  21289.1  1899.88
    6100.98  242660  21598.8  1880.39
    6105.18  244744  21888.4  1941.01
    6109.46  246890  22154.2  2057.75
    6113.83  249450  22472  2168.6
    6118.28  251709  22794.8  2228.57
    6122.74  253799  23108.7  2248.66
    6127.36  256672  23511.7  2292.87
    6131.99  258625  23868.7  2360.19
    6136.79  261331  24319.8  2425.63
    6141.59  264250  24816.9  2469.19
    6146.48  266628  25269.1  2502.86
    6151.46  269390  25757.3  2520.65
    6156.53  272455  26284.6  2560.55
    6161.6  275231  26800.9  2575.58
    6166.84  278047  27340.3  2586.72
    6172.1  280883  27891.8  2683.97
    6177.52  283965  28483.3  2819.35
    6182.95  287247  29085.8  2937.84
    6188.47  290270  29684.4  3024.45
    6194.08  293524  30301.1  3105.17
    6199.7  297414  30964.8  3201.01
    6205.5  300705  31580.6  3282.97
    6211.3  304051  32187.4  3387.05
    6217.2  307195  32786.3  3477.24
    6223.19  310532  33377.3  3520.54
    6229.2  314241  34051.3  3550.97
    6235.38  315560  34484.3  3548.51
    6241.56  313016  34485.4  3518.17
    6247.85  324347  36048.6  3685.95
    6254.23  328394  36839.8  3855.84
    6260.71  332273  37613  4030.85
    6267.2  335850  38379.4  4146.98
    6273.79  339760  39199.7  4252.21
    6280.48  343666  40058.1  4373.57
    6287.26  347492  40915.6  4476.05
    6294.06  351539  41803.2  4591.65
    6300.95  355606  42736.8  4734.36
    6307.95  359557  43671.4  4864.19
    6315.05  363637  44623.1  4975.13
    6322.16  368185  45644.8  5069.19
    6329.38  372270  46631.7  5169.37
    6336.69  376107  47588.5  5284.66
    6344.11  380517  48633.5  5433.08
    6351.55  384879  49678.4  5597.6
    6359.09  389034  50705.4  5766.24
    6366.65  392983  51712.5  5946.01
    6374.31  397601  52834.7  6121.89
    6382.07  401822  53910.8  6266.88
    6389.95  406038  55027.1  6425.99
    6397.84  410584  56207.4  6597.22
    6405.84  415147  57428.7  6760.57
    6413.95  419499  58654.1  6935.03
    6422.08  423817  59883.6  7125.61
    6430.32  428556  61206.1  7304.31
    6438.58  433338  62574.6  7474.11
    6446.95  437462  63853.3  7664.05
    6455.43  441908  65239  7889.09
    6463.93  446775  66677.7  8127.26
    6472.55  451378  68133.5  8349.54
    6481.28  455778  69577.3  8579.93
    6490.03  460733  71127.3  8820.45
    6498.9  464890  72596.2  9031.08
    6507.79  469914  74195.2  9272.83
    6516.8  474083  75702.2  9529.68
    6525.92  478259  77210.3  9780.67
    6535.07  483131  78869.6  10041.8
    6544.25  486872  80375.8  10273
    6553.54  490986  81954  10511.3
    6562.95  495589  83643.4  10776.8
    6572.4  500291  85337.7  11054.3
    6581.96  504685  87049.2  11341
    6591.55  509135  88776.7  11636.8
    6601.26  513779  90596.2  11929.7
    6611.09  518109  92399.9  12236.8
    6620.95  522919  94289.5  12541.9
    6630.85  526636  96020.2  12839.2
    6640.87  530319  97766  13143.6
    6650.92  534445  99669.8  13475.1
    6661.1  538781  101626  13806.7
    6671.31  542472  103433  14122.4
    6681.64  546765  105419  14462.3
    6692.01  549323  107098  14763.2
    6702.51  525955  103868  14383.3
    6713.04  565383  112747  15681.5
    6723.7  566478  114211  15965.8
    6734.4  568014  115848  16276.3
    6745.14  572973  118168  16694.8
    6756  571634  119253  16938.5
    6766.91  582421  122911  17553.3
    6777.94  587246  125350  17999.2
    6789.02  589183  127216  18365.2
    6800.23  587562  128321  18624.3
    6811.48  607677  134217  19583.6
    6822.77  605548  135291  19850.9
    6834.19  607797  137341  20266.4
    6845.66  611006  139702  20702
    6857.16  614447  142079  21159.8
    6868.81  617568  144488  21631.6
    6880.5  620814  146929  22101.6
    6892.33  623964  149419  22596.6
    6904.2  627135  151906  23095.8
    6916.11  630524  154505  23622.1
    6928.18  632571  156844  24111.5
    6940.28  634706  159203  24617.1
    6952.43  637428  161745  25141.7
    6964.62  640271  164301  25662.5
    6976.96  643071  166938  26212.4
    6989.35  645952  169573  26770.4
    7001.88  648429  172187  27322.5
    7014.47  651427  174921  27900.7
    7027.1  653640  177497  28447.1
    7039.77  656004  180131  29034.6
    7052.6  658703  182897  29638.2
    7065.48  660473  185414  30193.9
    7078.41  663000  188194  30811.7
    7091.39  665723  191084  31443.6
    7104.53  667037  193561  32013.7
    7111.06  667402  194731  32302.5