File: data/Cr/na2cro4_15K_001.xdi
# XDI/1.0
# Column.1: energy eV
# Column.2: i0
# Column.3: itrans
# Column.4: irefer
# Beamline.name: SSRL 2-3
# Beamline.notes: vert slits = 0.6mm
# Detector.I0: N2 15cm
# Detector.I1: N2 30cm
# Detector.I2: N2 15cm
# Element.edge: K
# Element.symbol: Cr
# Mono.d_spacing: 3.13550
# Mono.name: Si(111)
# Mono.notes: unfocused, detuned 75%, clockwise at E=5990eV
# Sample.formula: Na2CrO4
# Sample.name: Na2CrO4
# Sample.prep: powder on tape (4 layers)
# Sample.reference: Cr foil
# Sample.temperature: 15K
# Scan.start_time: 1997-04-18 15:04:31
# ///
#    Note: mono d_spacing is nominal!
#     exafs to K16
#     396  E XMU XMUR I0
#-------------
#   energy   i0   itrans  irefer
    5759.99  239152  12307.7  1562.3
    5780.01  238831  12781.7  1642.3
    5799.97  238361  13260.7  1726.3
    5820  238033  13759.7  1812.3
    5839.97  237529  14259.7  1902.3
    5860.02  236982  14769.7  1993.3
    5879.99  236263  15282.7  2088.3
    5899.97  235667  15809.7  2185.3
    5920.02  234907  16336.7  2284.3
    5939.99  234283  16871.7  2387.3
    5959.97  233463  17402.7  2486.3
    5970.49  232819  17650.7  2536.3
    5971.53  231999  17622.7  2531.3
    5972.49  229070  17429.7  2508.3
    5973.53  230817  17580.7  2528.3
    5974.5  232753  17765.7  2554.3
    5975.46  232859  17794.7  2559.3
    5976.51  232919  17826.7  2565.3
    5977.47  232672  17835.7  2569.3
    5978.52  232790  17874.7  2576.3
    5979.48  232719  17893.7  2577.3
    5980.53  232561  17910.7  2579.3
    5981.49  232939  17965.7  2588.3
    5982.46  233022  17997.7  2591.3
    5983.51  233001  18020.7  2597.3
    5984.48  233175  18060.7  2601.3
    5985.52  232262  18016.7  2596.3
    5986.49  224236  17422.7  2505.3
    5987.46  201347  15644.7  2248.3
    5988.51  217227  16895.7  2418.3
    5989.48  226620  17627.7  2498.3
    5990.53  229214  17812.7  2425.3
    5991.5  229875  17783.7  2299.3
    5992.47  230497  17633.7  2196.3
    5993.52  230519  16956.7  2050.3
    5994.49  230416  14729.7  1742.3
    5995.47  230673  14349.7  1673.3
    5996.51  230368  16840.7  1954.3
    5997.49  230344  17490.7  2029.3
    5998.54  230363  17623.7  2018.3
    5999.51  230020  17501.7  1941.3
    6000.49  229810  17261.7  1840.3
    6001.46  227563  16810.7  1723.3
    6002.51  226547  16522.7  1637.3
    6003.49  229604  16526.7  1598.3
    6004.47  230046  16260.7  1538.3
    6005.52  230016  15848.7  1468.3
    6006.5  229948  15379.7  1401.3
    6007.47  229970  14827.7  1326.3
    6008.53  229766  14158.7  1242.3
    6009.5  229963  13668.7  1176.3
    6010.94  229717  13151.5  1105.06
    6012.82  229732  12769.5  1100.18
    6014.78  229997  12780.6  1158.42
    6016.81  230005  12777.8  1171.77
    6018.93  230469  12731  1145.23
    6021.12  230758  12699.3  1120.82
    6023.39  230945  12694.6  1129.52
    6025.73  231491  12674  1138.34
    6028.16  232293  12706.4  1124.27
    6030.58  232712  12868.9  1123.32
    6033.16  233481  13052.5  1130.49
    6035.82  234312  13137  1140.77
    6038.56  235339  13198.7  1138.18
    6041.37  236075  13297.4  1137.69
    6044.26  237304  13619.2  1171.33
    6047.24  238230  13958  1210.08
    6050.29  239605  14193.9  1244.95
    6053.42  240463  14383.8  1290.94
    6056.56  241869  14668.8  1344.04
    6059.85  243171  14934.8  1390.26
    6063.22  244057  15146.9  1418.6
    6066.68  245312  15347  1422.05
    6070.13  246866  15559.2  1408.62
    6073.75  248491  15735.5  1397.31
    6077.37  250457  15925.8  1441.11
    6081.15  252339  16098.1  1499.03
    6084.93  254191  16274.6  1558.07
    6088.8  256130  16497  1582.22
    6092.83  257977  16761.5  1548.5
    6096.86  260173  17044.1  1505.88
    6100.98  262749  17334.8  1491.39
    6105.18  265183  17582.4  1540.01
    6109.46  267079  17719.2  1626.75
    6113.83  269718  17938  1715.6
    6118.28  272468  18255.8  1771.57
    6122.74  275219  18556.7  1790.66
    6127.36  277814  18840.7  1821.87
    6131.99  280322  19149.7  1876.19
    6136.79  283007  19518.8  1927.63
    6141.59  285886  19938.9  1967.18
    6146.48  288851  20378.1  2000.86
    6151.46  291851  20801.3  2019.65
    6156.53  295021  21248.6  2057.55
    6161.6  298096  21680.9  2071.58
    6166.84  301198  22143.3  2081.72
    6172.1  304462  22635.8  2157.97
    6177.52  307988  23136.3  2272.35
    6182.95  311606  23650.8  2368.84
    6188.47  314884  24174.4  2443.45
    6194.08  318051  24689.1  2510.17
    6199.7  321326  25187.8  2581.01
    6205.5  325155  25717.6  2651.97
    6211.3  328869  26242.4  2740.04
    6217.2  332427  26748.3  2817.24
    6223.19  335949  27262.3  2855.55
    6229.2  339604  27776.2  2879.97
    6235.38  342844  28293.3  2894.51
    6241.56  338354  28181.4  2855.17
    6247.85  349848  29431.5  2987.94
    6254.23  354624  30120.8  3125.84
    6260.71  358078  30733  3272.85
    6267.2  360914  31313.3  3357.97
    6273.79  365567  32052.7  3452.22
    6280.48  368919  32705.1  3544.58
    6287.26  374194  33546.6  3644.05
    6294.06  375588  34037.1  3710.64
    6300.95  379113  34747.7  3820.35
    6307.95  384033  35629.4  3944.18
    6315.05  388444  36444.1  4040.13
    6322.16  392148  37237.8  4110.18
    6329.38  396551  38068.6  4192.36
    6336.69  400325  38863.5  4285.66
    6344.11  404623  39725.4  4407.07
    6351.55  409584  40645.4  4546.6
    6359.09  413940  41529.4  4690.24
    6366.65  418202  42405.5  4843
    6374.31  423475  43392.6  4998.89
    6382.07  428087  44345.8  5126.88
    6389.95  433422  45399.1  5268.99
    6397.84  438091  46380.4  5408.22
    6405.84  444389  47585.7  5567.56
    6413.95  450672  48824.1  5732.03
    6422.08  454258  49809.6  5882.61
    6430.32  458698  50884.1  6035.31
    6438.58  462846  51954.7  6163.12
    6446.95  467808  53152.3  6334.05
    6455.43  473623  54467  6545.09
    6463.93  480005  55898.7  6761.26
    6472.55  483439  56988.5  6933.54
    6481.28  489414  58431.4  7148.94
    6490.03  492973  59593.3  7333.45
    6498.9  496360  60728.2  7502.08
    6507.79  505819  62651.2  7772.82
    6516.8  511493  64132.2  8007.69
    6525.92  514447  65299.4  8209.68
    6535.07  520549  66884.5  8450.77
    6544.25  516072  67093.8  8514.99
    6553.54  516917  68016  8661.31
    6562.95  520717  69358.4  8874.77
    6572.4  526761  71015.7  9140.33
    6581.96  531039  72468.2  9386.01
    6591.55  534731  73847.7  9616.81
    6601.26  536973  75055.2  9831.73
    6611.09  541722  76670.8  10087.8
    6620.95  546405  78297.5  10356.9
    6630.85  553761  80309.2  10672.2
    6640.87  557754  81880  10943.6
    6650.92  561671  83475.8  11215.1
    6661.1  567592  85384.7  11540.7
    6671.31  570513  86898.6  11813.4
    6681.64  574296  88525.5  12092.3
    6692.01  576767  89987.6  12348.2
    6702.51  557084  88091.7  12141.3
    6713.04  593572  94922.8  13149.5
    6723.7  596893  96633.1  13453.8
    6734.4  599204  98206.3  13753.3
    6745.14  606875  100705  14172.8
    6756  591266  99339  14060.5
    6766.91  616498  104911  14929.3
    6777.94  623809  107475  15388.2
    6789.02  626058  109247  15720.2
    6800.23  627322  110800  16030.3
    6811.48  647565  115827  16843.6
    6822.77  643550  116585  17045.9
    6834.19  647287  118758  17460.4
    6845.66  653576  121417  17936
    6857.16  660696  124281  18458.8
    6868.81  663434  126405  18864.6
    6880.5  671538  129600  19449.6
    6892.33  673745  131670  19864.6
    6904.2  677531  134114  20336.8
    6916.11  682935  136914  20874.1
    6928.18  682967  138668  21257.5
    6940.28  687778  141422  21811.1
    6952.43  690746  143817  22306.7
    6964.62  694041  146327  22805.5
    6976.96  695246  148441  23250.4
    6989.35  697415  150761  23738.4
    7001.88  699370  153033  24216.5
    7014.47  695686  154117  24527.8
    7027.1  701587  157316  25168.1
    7039.77  704690  159939  25715.5
    7052.6  710721  163310  26389.1
    7065.48  712742  165766  26926.9
    7078.41  715794  168496  27515.7
    7091.39  718072  171104  28087.6
    7104.53  715591  172583  28465.7
    7111.06  713669  173160  28634.5