File: data/Cr/na2cro4_100K_002.xdi
# XDI/1.0
# Column.1: energy eV
# Column.2: i0
# Column.3: itrans
# Column.4: irefer
# Beamline.name: SSRL 2-3
# Beamline.notes: vert slits = 0.6mm
# Detector.I0: N2 15cm
# Detector.I1: N2 30cm
# Detector.I2: N2 15cm
# Element.edge: K
# Element.symbol: Cr
# Mono.d_spacing: 3.13550
# Mono.name: Si(111)
# Mono.notes: unfocused, detuned 75%, clockwise at E=5990eV
# Sample.formula: Na2CrO4
# Sample.name: Na2CrO4
# Sample.prep: powder on tape (5 layers)
# Sample.reference: Cr foil
# Sample.temperature: 100K
# Scan.start_time: 1997-04-18 19:10:23
# ///
#    Note: mono d_spacing is nominal!
#     exafs to K16
#     396  E XMU XMUR I0
#-------------
#   energy   i0   itrans  irefer
    5759.99  218057  15076.7  1927.3
    5780.01  217616  15599.7  2018.3
    5799.97  217200  16134.7  2111.3
    5820  216988  16698.7  2213.3
    5839.97  216509  17252.7  2315.3
    5860.02  215913  17804.7  2418.3
    5879.99  215264  18363.7  2525.3
    5899.97  214910  18957.7  2637.3
    5920.02  214193  19534.7  2747.3
    5939.99  213555  20106.7  2860.3
    5959.97  212911  20695.7  2975.3
    5970.49  212293  20959.7  3029.3
    5971.53  211000  20866.7  3017.3
    5972.49  208807  20680.7  2988.3
    5973.53  211954  21022.7  3042.3
    5974.5  212634  21123.7  3057.3
    5975.46  212750  21159.7  3062.3
    5976.51  212750  21192.7  3070.3
    5977.47  212657  21211.7  3072.3
    5978.52  212808  21259.7  3082.3
    5979.48  212661  21269.7  3081.3
    5980.53  212924  21331.7  3094.3
    5981.49  212814  21346.7  3094.3
    5982.46  212781  21370.7  3096.3
    5983.51  213061  21426.7  3108.3
    5984.48  212883  21439.7  3106.3
    5985.52  211437  21308.7  3085.3
    5986.49  200126  20196.7  2921.3
    5987.46  184523  18633.7  2691.3
    5988.51  202064  20422.7  2932.3
    5989.48  208040  21027.7  2976.3
    5990.53  210046  21193.7  2852.3
    5991.5  210405  21132.7  2713.3
    5992.47  210646  20894.7  2596.3
    5993.52  210527  19879.7  2403.3
    5994.49  210964  17549.7  2078.3
    5995.47  211237  18636.7  2182.3
    5996.51  211017  20590.7  2406.3
    5997.49  211233  21009.7  2450.3
    5998.54  210705  20987.7  2400.3
    5999.51  210947  20857.7  2302.3
    6000.49  209897  20503.7  2175.3
    6001.46  207490  20005.7  2045.3
    6002.51  208272  19832.7  1965.3
    6003.49  210333  19737.7  1915.3
    6004.47  210457  19375.7  1843.3
    6005.52  210443  18881.7  1761.3
    6006.5  210842  18410.7  1690.3
    6007.47  210329  17799.7  1603.3
    6008.53  210732  17207.7  1522.3
    6009.5  210933  16744.7  1451.3
    6010.94  210847  16246.5  1382.06
    6012.82  210919  15989.5  1403.18
    6014.78  210929  15993.6  1469.41
    6016.81  210974  16021.8  1482.76
    6018.93  211182  16015  1452.23
    6021.12  211526  15988.3  1427.82
    6023.39  211858  15966.6  1437.52
    6025.73  212476  15995  1452.34
    6028.16  213116  16116.4  1437.27
    6030.58  213746  16307.9  1437.32
    6033.16  214554  16524.4  1445.49
    6035.82  215343  16698  1459.77
    6038.56  215973  16828.7  1462.18
    6041.37  216728  16989.4  1467.69
    6044.26  217751  17258.2  1502.33
    6047.24  218766  17548  1539.08
    6050.29  219859  17770.8  1578.95
    6053.42  221022  18071.8  1640.94
    6056.56  222173  18365.8  1705.04
    6059.85  223627  18678.8  1760.26
    6063.22  224061  18867.9  1786.6
    6066.68  225208  19082  1786.05
    6070.13  226523  19298.2  1762.62
    6073.75  228315  19525.5  1757.31
    6077.37  229935  19740.8  1809.11
    6081.15  231626  19976.1  1885.03
    6084.93  233502  20234.6  1961.07
    6088.8  235014  20497  1982.22
    6092.83  237148  20841.6  1940.49
    6096.86  239143  21158.1  1886.88
    6100.98  241070  21461.8  1866.39
    6105.18  243530  21775.4  1930.01
    6109.46  245518  22018.2  2043.75
    6113.83  247827  22315  2151.6
    6118.28  250160  22630.8  2208.57
    6122.74  252543  22980.7  2232.66
    6127.36  254895  23346.7  2274.87
    6131.99  257148  23733.7  2343.19
    6136.79  260191  24205.8  2410.63
    6141.59  262556  24645.9  2448.19
    6146.48  265368  25143.1  2485.86
    6151.46  268269  25644.3  2507.65
    6156.53  271465  26190.6  2550.55
    6161.6  274193  26696.9  2560.58
    6166.84  277106  27246.3  2574.72
    6172.1  280246  27825.8  2674.98
    6177.52  282997  28377.3  2807.35
    6182.95  286352  29000.8  2923.84
    6188.47  289140  29571.4  3008.45
    6194.08  292344  30176.1  3089.17
    6199.7  295566  30771.8  3171.01
    6205.5  298955  31392.6  3259.97
    6211.3  302354  32017.4  3364.05
    6217.2  306005  32657.3  3456.23
    6223.19  309252  33265.2  3501.54
    6229.2  312761  33902.2  3529.97
    6235.38  314059  34330.3  3524.51
    6241.56  311864  34369.4  3498.17
    6247.85  323150  35920.5  3668.95
    6254.23  327604  36740.7  3838.84
    6260.71  331311  37502  4016.85
    6267.2  335349  38333.3  4135.97
    6273.79  339201  39139.7  4239.22
    6280.48  343393  40012.1  4360.58
    6287.26  347074  40867.6  4463.05
    6294.06  351199  41769.2  4580.65
    6300.95  355142  42676.7  4720.35
    6307.95  359227  43619.4  4853.18
    6315.05  363361  44589.1  4967.13
    6322.16  367603  45568.8  5059.19
    6329.38  371413  46510.6  5155.36
    6336.69  375555  47513.5  5272.66
    6344.11  379922  48557.5  5421.07
    6351.55  384066  49562.4  5579.6
    6359.09  388155  50581.4  5745.25
    6366.65  392794  51680.5  5941.01
    6374.31  397114  52751.6  6109.88
    6382.07  401517  53871.8  6260.88
    6389.95  405703  54987.1  6418.99
    6397.84  410047  56135.4  6584.22
    6405.84  414570  57354.7  6743.57
    6413.95  419320  58610.1  6923.03
    6422.08  423667  59871.6  7117.61
    6430.32  428343  61174.1  7295.31
    6438.58  432526  62459.7  7453.12
    6446.95  436962  63792.3  7646.04
    6455.43  441279  65136.9  7871.09
    6463.93  446004  66574.7  8103.26
    6472.55  450712  68043.5  8327.54
    6481.28  455320  69510.3  8562.93
    6490.03  460044  71044.3  8803.45
    6498.9  464572  72507.2  9016.08
    6507.79  468660  73975.2  9239.83
    6516.8  473072  75516.2  9495.69
    6525.92  477838  77134.3  9755.67
    6535.07  482532  78759.5  10015.8
    6544.25  486550  80283.8  10250
    6553.54  490397  81806  10482.3
    6562.95  494588  83430.4  10739.8
    6572.4  499565  85209.8  11025.3
    6581.96  504494  87004.2  11329
    6591.55  508736  88708.7  11620.8
    6601.26  512967  90458.3  11914.7
    6611.09  517607  92282.9  12210.8
    6620.95  521407  93994.5  12500.9
    6630.85  526478  95950.2  12819.2
    6640.87  530324  97748  13130.6
    6650.92  534554  99637.8  13461.1
    6661.1  538684  101543  13796.7
    6671.31  543015  103497  14130.4
    6681.64  546709  105366  14459.3
    6692.01  549466  107086  14765.2
    6702.51  525109  103669  14358.3
    6713.04  565435  112701  15679.5
    6723.7  566657  114219  15965.8
    6734.4  567705  115738  16265.3
    6745.14  573341  118204  16700.8
    6756  572468  119373  16966.5
    6766.91  582193  122848  17551.3
    6777.94  587798  125390  18004.2
    6789.02  589838  127325  18388.2
    6800.23  586985  128156  18613.3
    6811.48  606960  134043  19565.6
    6822.77  604648  135087  19826.9
    6834.19  607805  137367  20258.4
    6845.66  611133  139699  20703
    6857.16  613986  141961  21143.8
    6868.81  617437  144415  21622.6
    6880.5  621083  146980  22128.5
    6892.33  623889  149354  22605.6
    6904.2  627807  152070  23136.8
    6916.11  630309  154474  23627.1
    6928.18  632823  156863  24120.5
    6940.28  636617  159651  24692.1
    6952.43  638979  162061  25207.7
    6964.62  641838  164659  25751.5
    6976.96  645545  167522  26321.4
    6989.35  649097  170380  26910.4
    7001.88  651838  173034  27482.5
    7014.47  655001  175857  28063.7
    7027.1  657161  178382  28609.1
    7039.77  660269  181233  29215.6
    7052.6  663000  184023  29822.2
    7065.48  665233  186701  30427.9
    7078.41  667403  189386  31019.7
    7091.39  669493  192096  31626.6
    7104.53  671063  194708  32227.7
    7111.06  672387  196160  32543.5