File: data/Cr/na2cro4_15K_002.xdi
# XDI/1.0
# Column.1: energy eV
# Column.2: i0
# Column.3: itrans
# Column.4: irefer
# Beamline.name: SSRL 2-3
# Beamline.notes: vert slits = 0.6mm
# Detector.I0: N2 15cm
# Detector.I1: N2 30cm
# Detector.I2: N2 15cm
# Element.edge: K
# Element.symbol: Cr
# Mono.d_spacing: 3.13550
# Mono.name: Si(111)
# Mono.notes: unfocused, detuned 75%, clockwise at E=5990eV
# Sample.formula: Na2CrO4
# Sample.name: Na2CrO4
# Sample.prep: powder on tape (4 layers)
# Sample.reference: Cr foil
# Sample.temperature: 15K
# Scan.start_time: 1997-04-18 15:04:31
# ///
#    Note: mono d_spacing is nominal!
#     exafs to K16
#     396  E XMU XMUR I0
#-------------
#   energy   i0   itrans  irefer
    5759.99  232309  11958.7  1517.3
    5780.01  231445  12386.7  1591.3
    5799.97  231466  12873.7  1675.3
    5820  230651  13330.7  1756.3
    5839.97  230010  13805.7  1841.3
    5860.02  229544  14307.7  1933.3
    5879.99  229058  14817.7  2025.3
    5899.97  227772  15279.7  2114.3
    5920.02  226797  15776.7  2209.3
    5939.99  226382  16300.7  2306.3
    5959.97  225256  16782.7  2401.3
    5970.49  224952  17058.7  2452.3
    5971.53  224385  17045.7  2451.3
    5972.49  221613  16862.7  2425.3
    5973.53  224224  17075.7  2457.3
    5974.5  226212  17264.7  2485.3
    5975.46  226624  17312.7  2492.3
    5976.51  226638  17350.7  2501.3
    5977.47  226179  17345.7  2501.3
    5978.52  226240  17369.7  2505.3
    5979.48  226694  17430.7  2516.3
    5980.53  226475  17442.7  2517.3
    5981.49  226352  17459.7  2519.3
    5982.46  226790  17517.7  2526.3
    5983.51  228613  17691.7  2549.3
    5984.48  229267  17766.7  2559.3
    5985.52  228605  17728.7  2555.3
    5986.49  221320  17189.7  2474.3
    5987.46  199786  15520.7  2231.3
    5988.51  216692  16858.7  2412.3
    5989.48  225288  17523.7  2482.3
    5990.53  225934  17547.7  2381.3
    5991.5  227063  17550.7  2265.3
    5992.47  229094  17497.7  2178.3
    5993.52  229439  16788.7  2030.3
    5994.49  229170  14490.7  1717.3
    5995.47  229448  14424.7  1685.3
    5996.51  229272  16846.7  1960.3
    5997.49  229318  17432.7  2026.3
    5998.54  229326  17538.7  2012.3
    5999.51  229068  17413.7  1931.3
    6000.49  228932  17182.7  1832.3
    6001.46  226443  16718.7  1717.3
    6002.51  225990  16473.7  1637.3
    6003.49  229002  16467.7  1597.3
    6004.47  228968  16163.7  1536.3
    6005.52  229079  15764.7  1469.3
    6006.5  229019  15289.7  1401.3
    6007.47  228901  14735.7  1328.3
    6008.53  228824  14081.7  1245.3
    6009.5  228748  13582.7  1179.3
    6010.94  228941  13095.5  1111.06
    6012.82  228822  12712.5  1107.18
    6014.78  228779  12711.6  1159.42
    6016.81  228541  12691.8  1171.76
    6018.93  229133  12659  1148.23
    6021.12  229490  12624.3  1124.82
    6023.39  230231  12650.6  1133.52
    6025.73  230458  12607  1140.33
    6028.16  231126  12635.4  1128.27
    6030.58  231314  12776.9  1122.32
    6033.16  231898  12955.4  1129.49
    6035.82  233017  13058  1138.77
    6038.56  234172  13125.7  1138.18
    6041.37  235199  13238.4  1138.7
    6044.26  235861  13535.2  1170.33
    6047.24  236979  13879  1210.08
    6050.29  238180  14107.9  1244.95
    6053.42  239193  14309.8  1289.94
    6056.56  240839  14600.8  1347.04
    6059.85  242067  14862.8  1393.26
    6063.22  242758  15060.9  1419.6
    6066.68  244227  15274  1424.05
    6070.13  245959  15500.2  1411.62
    6073.75  247659  15678.5  1400.31
    6077.37  249302  15845.8  1444.11
    6081.15  251695  16050.1  1503.03
    6084.93  253314  16218.6  1562.07
    6088.8  255622  16456  1587.22
    6092.83  257639  16729.5  1554.49
    6096.86  259827  17022.1  1511.88
    6100.98  261749  17266.7  1493.39
    6105.18  264102  17509.4  1541.01
    6109.46  266640  17678.2  1628.74
    6113.83  268907  17891  1713.6
    6118.28  271443  18182.8  1767.57
    6122.74  274097  18475.7  1785.66
    6127.36  276498  18741.7  1813.87
    6131.99  279202  19072.7  1871.19
    6136.79  281822  19436.8  1922.63
    6141.59  284718  19857.9  1960.18
    6146.48  287572  20283.1  1991.86
    6151.46  290574  20705.3  2012.65
    6156.53  293754  21157.6  2048.55
    6161.6  296869  21599.9  2062.58
    6166.84  299978  22048.3  2069.72
    6172.1  303148  22535.8  2147.98
    6177.52  306508  23029.3  2261.35
    6182.95  309516  23490.8  2352.84
    6188.47  313039  24037.4  2441.45
    6194.08  316727  24591.1  2514.17
    6199.7  320515  25139.8  2592.01
    6205.5  323654  25609.6  2654.97
    6211.3  327535  26142.4  2741.04
    6217.2  331464  26684.3  2821.23
    6223.19  335250  27210.2  2863.54
    6229.2  338892  27729.2  2886.97
    6235.38  341174  28167.3  2896.51
    6241.56  337831  28145.4  2864.17
    6247.85  350173  29461.6  3005.95
    6254.23  354547  30126.7  3144.84
    6260.71  358538  30793  3297.85
    6267.2  362694  31471.3  3397.97
    6273.79  366933  32201.7  3489.22
    6280.48  371134  32910.1  3591.58
    6287.26  375308  33666.6  3682.05
    6294.06  379613  34433.1  3778.65
    6300.95  383782  35214.7  3901.36
    6307.95  387986  36015.4  4010.18
    6315.05  392688  36871.1  4110.13
    6322.16  397457  37750.8  4193.19
    6329.38  401993  38611.6  4278.37
    6336.69  405816  39408.5  4367.66
    6344.11  410713  40339.4  4491.07
    6351.55  414724  41180.4  4630.6
    6359.09  419630  42118.4  4776.24
    6366.65  424320  43046.5  4937.01
    6374.31  428668  43935.7  5081.88
    6382.07  433243  44907.8  5209.88
    6389.95  436671  45761.1  5333.99
    6397.84  442627  46880.4  5495.22
    6405.84  447058  47900.7  5629.57
    6413.95  452184  49019.1  5786.03
    6422.08  456910  50121.6  5950.61
    6430.32  461535  51227.1  6106.3
    6438.58  466810  52447.7  6260.12
    6446.95  471526  53629.3  6426.05
    6455.43  475971  54787  6620.09
    6463.93  480538  56008.7  6819.26
    6472.55  485096  57231.5  7004.54
    6481.28  490608  58622.3  7216.93
    6490.03  495883  59986.2  7430.45
    6498.9  500037  61235.2  7609.08
    6507.79  504355  62530.2  7807.83
    6516.8  509611  63972.3  8042.69
    6525.92  513987  65300.4  8259.67
    6535.07  519589  66827.5  8500.77
    6544.25  523892  68173.7  8707.98
    6553.54  528318  69579  8919.32
    6562.95  532820  71039.3  9143.76
    6572.4  537400  72508.8  9382.33
    6581.96  542891  74157.2  9654.01
    6591.55  547449  75685.7  9909.81
    6601.26  551857  77229.2  10175.7
    6611.09  556791  78880.8  10434.8
    6620.95  562112  80636.5  10728.9
    6630.85  565275  82067.2  10974.2
    6640.87  570073  83781  11265.6
    6650.92  574116  85425.8  11553.1
    6661.1  579742  87322.7  11878.7
    6671.31  584001  89047.6  12172.4
    6681.64  587351  90658.6  12451.3
    6692.01  589763  92132.6  12717.2
    6702.51  569606  90191.7  12501.3
    6713.04  607342  97233.8  13540.5
    6723.7  608081  98551  13791.8
    6734.4  609070  99948.4  14062.3
    6745.14  615142  102200  14453.8
    6756  600862  101068  14371.5
    6766.91  625601  106574  15236.3
    6777.94  631250  108902  15654.2
    6789.02  632115  110416  15949.2
    6800.23  630512  111508  16202.3
    6811.48  652888  116921  17076.6
    6822.77  649851  117866  17302.9
    6834.19  652006  119778  17671.4
    6845.66  654875  121828  18071
    6857.16  658395  124045  18489.8
    6868.81  661282  126169  18908.6
    6880.5  664838  128480  19360.5
    6892.33  668505  130838  19815.6
    6904.2  671903  133153  20273.8
    6916.11  674047  135291  20703.1
    6928.18  676491  137517  21165.5
    6940.28  680085  140033  21666
    6952.43  682083  142232  22130.7
    6964.62  685308  144696  22635.5
    6976.96  688727  147263  23154.4
    6989.35  691094  149583  23645.4
    7001.88  694165  152110  24172.5
    7014.47  695770  154353  24650.7
    7027.1  698798  156922  25179.1
    7039.77  701383  159386  25706.6
    7052.6  702882  161712  26222.2
    7065.48  705913  164401  26787.9
    7078.41  708584  167038  27356.7
    7091.39  711365  169696  27944.6
    7104.53  712024  171947  28463.7
    7111.06  712860  173185  28741.5