File: data/Ni/Ni2O3_rt_03.xdi
# XDI/1.0
# Column.1: energy eV
# Column.2: i0
# Column.3: itrans
# Column.4: irefer
# Beamline.name: SSRL 4-1
# Detector.I0: N2 15cm
# Detector.I1: N2 30cm
# Detector.I2: N2 15cm
# Element.edge: K
# Element.symbol: Ni
# Mono.d_spacing: 3.13550
# Mono.name: Si(111)
# Mono.notes: unfocused, detuned 25%,counter clockwise
# Sample.formula: Ni2O3
# Sample.name: Ni2O3
# Sample.prep: powder, mixed 1:100 with B(OH)3 by wt
# Sample.reference: none
# Sample.temperature: room temperature
# Scan.start_time: 1997-01-17 17:59:41
# ///
#    Note: mono d_spacing is nominal!
#     exafs to K17
#     435  E XMU XMUR I0
#-------------
#   energy   i0   itrans  irefer
    8110  298434  193427  535233
    8130  298653  196269  553926
    8150  298133  198681  571126
    8170  297738  201195  588432
    8190  296571  203189  604688
    8210  296045  205611  621562
    8230  295394  207930  638361
    8250  294640  210186  654822
    8270  293562  212199  670194
    8290  291623  213506  683493
    8310  292073  216396  696090
    8311  292010  216481  697824
    8312  291685  216354  698721
    8313  291584  216383  699757
    8314  291302  216274  700348
    8315  291168  216286  700830
    8316  291522  216656  701855
    8317  291453  216720  702217
    8318  291672  216973  702709
    8319  291254  216767  701809
    8320  290092  215963  698852
    8321  288160  214616  694218
    8322  285214  212501  687354
    8323  281922  210106  679987
    8324  279903  208684  675045
    8325  279381  208275  671624
    8326  281457  209883  671788
    8327  285257  212795  673188
    8328  288688  215361  669257
    8329  291536  217399  656374
    8330  292472  217816  626216
    8331  292366  217335  580354
    8332  292702  217192  532181
    8333  291989  216281  489494
    8334  291244  215260  418009
    8335  291095  214444  355690
    8336  290236  212423  313890
    8337  290157  209970  284372
    8338  290051  206229  257682
    8339  289699  200559  228727
    8340  289567  193599  199719
    8341  289975  185432  171222
    8342  290226  176456  143894
    8343  290384  166579  117555
    8344  290468  155719  92795.1
    8345  290983  144734  71566.1
    8346  290676  133087  53857.1
    8347  290694  123286  41820.1
    8348  290481  115223  34198.1
    8349  290507  109858  30356.1
    8350  290230  107775  29150.1
    8351  290192  109884  29945.1
    8352  289956  115347  31801.1
    8353  289896  122207  33735.1
    8354  289549  128365  34702.1
    8355  289659  133458  34759.1
    8356  289753  137950  34241.1
    8357  289845  142302  33988.1
    8358  289601  146770  34482.1
    8359  289598  150795  35701.1
    8360  289582  153595  37285.1
    8361  289520  154526  38597.1
    8362  289629  153889  39542.1
    8363  289440  151827  40279.1
    8364  289467  149515  40970.1
    8365  289239  147437  41668.1
    8366  289432  146701  42504.1
    8367  289603  147131  43312.1
    8368  289454  148153  44020.1
    8369  289168  149325  44486.1
    8370  289376  150761  44837.1
    8371.78  289123  152638  44226.1
    8373.65  289096  154558  42488.1
    8375.58  289132  156244  39736.1
    8377.6  289231  156541  36525.1
    8379.69  289180  155127  33419.1
    8381.85  289394  153046  31734.1
    8384.1  289144  151024  32149
    8386.42  289569  149527  34627
    8388.81  289496  146246  37537.9
    8391.28  289663  141699  39767.9
    8393.83  289661  137959  41043.9
    8396.46  289792  135886  41259.9
    8399.16  290057  135112  41170.8
    8401.94  290617  136837  42189.8
    8404.78  290555  140461  43273.7
    8407.72  290977  144868  43489.7
    8410.72  291199  149032  43330.6
    8413.81  291488  152610  42887.5
    8416.96  291760  155547  41488.5
    8420.2  291858  157037  39669.4
    8423.51  292336  157073  37334.3
    8426.89  292695  155674  34486.3
    8430.36  293363  154589  32587.2
    8433.9  293682  154551  33135.1
    8437.51  294277  154823  35786
    8441.21  294814  154458  39297.9
    8444.97  295586  152896  42414.8
    8448.82  295632  151428  44877.8
    8452.74  296483  152822  49630.7
    8456.74  297086  156098  54910.6
    8460.81  297619  160427  57004.5
    8464.96  298126  163980  55343.3
    8469.19  298600  163880  51243.2
    8473.49  299537  160591  47778.1
    8477.87  300320  158128  47357
    8482.33  300891  159334  47904.9
    8486.85  301408  162000  44423.7
    8491.47  302094  162939  38993.6
    8496.15  303344  162712  36650.5
    8500.91  304323  162452  36560.4
    8505.75  305087  163307  39159.2
    8510.66  305655  165666  45622.1
    8515.65  305905  169380  56359.9
    8520.71  307206  174631  68329.8
    8525.86  307872  178541  72099.6
    8531.07  309097  179642  66416.5
    8536.37  309910  177168  58868.4
    8541.74  310983  174457  54677.1
    8547.19  311649  173116  54358
    8552.71  312713  174009  56025.8
    8558.31  313639  175925  58835.7
    8563.99  315108  178415  60904.5
    8569.74  315753  180150  57485.3
    8575.57  316824  181984  53634.1
    8581.47  317839  184137  52573.9
    8587.45  318821  185943  54558.7
    8593.51  319905  187133  60259.6
    8599.64  321150  189300  68233.4
    8605.85  322229  192127  74361.2
    8612.14  323265  194108  76239
    8618.5  323469  194499  76368.7
    8624.94  324378  194571  76684.5
    8631.45  327189  195633  76945.3
    8638.05  328250  196298  75639.1
    8644.71  329252  197655  74534.9
    8651.46  330644  199924  74623.7
    8658.28  332085  203627  75227.4
    8665.17  333312  206861  75074.2
    8672.15  334450  208499  75299
    8679.19  336059  209887  78404.7
    8686.32  336983  211542  83415.5
    8693.52  338048  213375  87468.2
    8700.81  339779  214681  88546
    8708.16  340828  215461  90389.8
    8715.58  342133  216473  95184.5
    8723.1  343714  218318  97736.2
    8730.68  344937  220783  99279
    8738.34  346390  223999  100656
    8746.08  347865  227828  101883
    8753.89  349393  230327  102374
    8761.77  351035  231631  102451
    8769.74  352247  233066  102836
    8777.78  353845  235578  104310
    8785.9  354807  237529  107317
    8794.09  356438  239971  112338
    8802.36  357975  241992  116241
    8810.7  359293  243892  118238
    8819.13  360346  245147  119757
    8827.63  355760  243172  121047
    8836.2  361313  248758  126842
    8844.85  366258  253933  131536
    8853.59  367585  256739  135085
    8862.38  369063  259669  137997
    8871.27  370759  262282  139566
    8880.22  372706  264984  140613
    8889.26  373764  267382  141066
    8898.37  375533  270040  143051
    8907.55  376900  271896  147395
    8916.81  378663  273867  152466
    8926.15  379779  276384  156735
    8935.57  381256  279820  160917
    8945.06  383144  282943  164610
    8954.62  385610  286247  168809
    8964.26  386714  288982  172838
    8973.98  388584  292237  177636
    8983.78  390096  294827  181555
    8993.65  391662  297607  185041
    9003.6  392827  300125  188239
    9013.63  394951  303414  191652
    9023.73  396737  306245  194938
    9033.9  398025  308974  198938
    9044.16  399852  312567  203862
    9054.49  401504  315824  209132
    9064.89  401799  317933  213781
    9075.38  404492  321756  219322
    9085.93  403926  323314  223637
    9096.57  408297  329008  230675
    9107.28  409537  332045  236099
    9118.07  412462  336401  242627
    9128.93  412810  338614  247552
    9139.87  415852  342804  253358
    9150.89  416842  345288  257540
    9161.98  418963  349206  263106
    9173.15  420738  352994  269256
    9184.4  422112  356393  275463
    9195.72  423825  360041  281587
    9207.11  425715  363902  288048
    9218.59  427231  367333  294724
    9230.13  429161  371246  302157
    9241.76  428512  372878  307745
    9253.47  433076  379006  317063
    9265.25  432638  380833  322858
    9277.1  436480  386467  331776
    9289.03  438343  390487  339489
    9301.04  439637  393945  346441
    9313.13  441324  397833  353884
    9325.29  443388  402135  361993
    9337.52  444525  405621  369615
    9349.84  446696  410089  378428
    9362.23  448106  413854  386808
    9374.69  450055  418131  395769
    9387.24  451368  421918  404434
    9399.86  453126  426048  413762
    9412.55  455152  430470  423524
    9425.32  456907  434779  433554
    9438.17  458537  438948  443501
    9451.09  460193  443147  453676