File: data/Ni/Ni2O3_rt_02.xdi
# XDI/1.0
# Column.1: energy eV
# Column.2: i0
# Column.3: itrans
# Column.4: irefer
# Beamline.name: SSRL 4-1
# Detector.I0: N2 15cm
# Detector.I1: N2 30cm
# Detector.I2: N2 15cm
# Element.edge: K
# Element.symbol: Ni
# Mono.d_spacing: 3.13550
# Mono.name: Si(111)
# Mono.notes: unfocused, detuned 25%,counter clockwise
# Sample.formula: Ni2O3
# Sample.name: Ni2O3
# Sample.prep: powder, mixed 1:100 with B(OH)3 by wt
# Sample.reference: none
# Sample.temperature: room temperature
# Scan.start_time: 1997-01-17 17:59:41
# ///
#    Note: mono d_spacing is nominal!
#     exafs to K17
#     435  E XMU XMUR I0
#-------------
#   energy   i0   itrans  irefer
    8110  296265  191684  532538
    8130  296820  194726  551205
    8150  295731  196732  567187
    8170  295297  199177  583931
    8190  294760  201608  600884
    8210  293938  203786  617121
    8230  293240  206050  633697
    8250  292534  208308  649837
    8270  291685  210478  665447
    8290  289737  211765  678430
    8310  290068  214559  690792
    8311  290302  214851  693118
    8312  289768  214554  693641
    8313  289492  214466  694396
    8314  289404  214531  695447
    8315  288966  214306  695361
    8316  289420  214751  696611
    8317  290013  215319  698369
    8318  289833  215261  698221
    8319  289279  214942  696967
    8320  288741  214639  695384
    8321  286814  213276  690789
    8322  283765  211094  683758
    8323  280730  208924  677026
    8324  277955  206903  670883
    8325  277239  206392  667491
    8326  278691  207503  666907
    8327  282205  210214  668558
    8328  286110  213138  666700
    8329  289147  215339  656564
    8330  290549  216167  631729
    8331  290762  215927  589844
    8332  289929  214920  540478
    8333  289647  214357  498193
    8334  289251  213610  432898
    8335  289079  212904  364808
    8336  288549  211305  319499
    8337  288359  209053  288539
    8338  288057  205539  261774
    8339  287912  200439  233522
    8340  287774  193847  204676
    8341  287750  185640  175605
    8342  288021  176884  148310
    8343  287951  167265  122071
    8344  288583  157001  97250.1
    8345  288584  145882  75176.1
    8346  288907  134450  56614.1
    8347  288919  124309  43510.1
    8348  288819  115900  35073.1
    8349  288577  109911  30571.1
    8350  288522  107124  28914.1
    8351  288295  108224  29276.1
    8352  288046  113091  30950.1
    8353  288045  119869  32994.1
    8354  287854  126236  34224.1
    8355  287879  131442  34422.1
    8356  287841  135939  33992.1
    8357  287710  140146  33577.1
    8358  287679  144693  33920.1
    8359  287950  149007  35056.1
    8360  287710  151993  36567.1
    8361  287686  153319  37925.1
    8362  287798  152993  38988.1
    8363  287860  151272  39745.1
    8364  287615  148859  40362.1
    8365  287787  146844  41120.1
    8366  287767  145733  41930.1
    8367  287919  145956  42734.1
    8368  287628  146779  43423.1
    8369  287583  148050  44006.1
    8370  287828  149524  44383.1
    8371.78  287446  151359  43936.1
    8373.65  287595  153355  42373.1
    8375.58  287770  155197  39717.1
    8377.6  288182  155846  36572.1
    8379.69  287818  154402  33363.1
    8381.85  287674  152137  31453
    8384.1  287976  150373  31751
    8386.42  288105  148772  34046
    8388.81  288207  145759  36988
    8391.28  288359  141228  39286.9
    8393.83  288430  137418  40668.9
    8396.46  288504  135238  40903.8
    8399.16  288964  134446  40817.8
    8401.94  289145  135787  41711.8
    8404.78  289319  139441  42893.7
    8407.72  289811  143862  43126.7
    8410.72  290315  148189  43085.6
    8413.81  290097  151516  42575.5
    8416.96  290378  154518  41206.5
    8420.2  291200  156469  39543.4
    8423.51  291545  156542  37264.3
    8426.89  292385  155432  34463.3
    8430.36  292138  153817  32363.2
    8433.9  292515  153766  32759.1
    8437.51  293249  154133  35361
    8441.21  293825  153837  38829.9
    8444.97  294317  152178  41968.8
    8448.82  294979  150948  44461.8
    8452.74  295524  152069  49093.7
    8456.74  295967  155169  54358.6
    8460.81  296677  159556  56667.5
    8464.96  297156  163198  55155.4
    8469.19  297931  163447  51166.2
    8473.49  298641  160131  47568.1
    8477.87  299410  157544  47022
    8482.33  299899  158547  47631.9
    8486.85  300671  161352  44434.8
    8491.47  301565  162524  39008.6
    8496.15  302467  162119  36488.5
    8500.91  303069  161631  36243.4
    8505.75  304001  162510  38692.2
    8510.66  304627  164824  45007.1
    8515.65  305701  168946  55730.9
    8520.71  306528  173898  67672.8
    8525.86  307029  177800  71784.6
    8531.07  308272  179055  66377.5
    8536.37  309454  176897  58911.4
    8541.74  310062  173906  54469.1
    8547.19  311113  172700  54080
    8552.71  311992  173408  55687.8
    8558.31  313130  175401  58534.7
    8563.99  314444  177815  60664.5
    8569.74  315083  179579  57423.3
    8575.57  316455  181567  53563.1
    8581.47  317101  183521  52347.9
    8587.45  318318  185478  54218.8
    8593.51  319189  186554  59734.5
    8599.64  320522  188730  67723.4
    8605.85  321535  191502  73928.2
    8612.14  322438  193456  75907.9
    8618.5  322902  194011  76071.7
    8624.94  323912  194172  76428.5
    8631.45  326314  194990  76640.3
    8638.05  327627  195747  75418.1
    8644.71  328734  197158  74330.9
    8651.46  329725  199147  74260.7
    8658.28  331617  203109  75011.4
    8665.17  332147  205959  74717.2
    8672.15  333823  207935  74986.9
    8679.19  335134  209140  77930.7
    8686.32  336231  210863  82910.5
    8693.52  337454  212836  87123.3
    8700.81  338804  213911  88147
    8708.16  340082  214844  89964.8
    8715.58  341707  216040  94819.5
    8723.1  342697  217485  97268.2
    8730.68  344183  220090  98907
    8738.34  345526  223209  100243
    8746.08  347051  227058  101478
    8753.89  348387  229483  101935
    8761.77  349765  230625  101965
    8769.74  350881  231990  102270
    8777.78  352552  234514  103740
    8785.9  354287  236993  106916
    8794.09  355323  239038  111738
    8802.36  357048  241188  115749
    8810.7  358342  243048  117754
    8819.13  359402  244320  119278
    8827.63  355130  242534  120578
    8836.2  361067  248374  126533
    8844.85  365550  253214  131027
    8853.59  366773  255932  134557
    8862.38  368716  259172  137643
    8871.27  370091  261600  139138
    8880.22  371532  263916  139965
    8889.26  372694  266382  140496
    8898.37  374914  269382  142596
    8907.55  375985  271036  146724
    8916.81  377665  272883  151835
    8926.15  379599  276020  156432
    8935.57  380348  278913  160296
    8945.06  382128  281987  163961
    8954.62  383964  284805  167836
    8964.26  386148  288319  172318
    8973.98  387450  291150  176858
    8983.78  389599  294205  181073
    8993.65  390592  296566  184319
    9003.6  392557  299709  187916
    9013.63  394115  302536  191038
    9023.73  395490  305048  194091
    9033.9  397896  308655  198660
    9044.16  398988  311667  203189
    9054.49  400629  314919  208438
    9064.89  401295  317324  213280
    9075.38  403568  320787  218556
    9085.93  402971  322335  222850
    9096.57  407139  327846  229828
    9107.28  408436  330933  235241
    9118.07  411192  335122  241622
    9128.93  411593  337385  246590
    9139.87  414265  341299  252167
    9150.89  415992  344361  256799
    9161.98  418089  348260  262346
    9173.15  419750  351957  268372
    9184.4  421316  355521  274713
    9195.72  422585  358774  280528
    9207.11  424042  362273  286678
    9218.59  425936  366011  293583
    9230.13  428147  370142  301203
    9241.76  427326  371609  306618
    9253.47  431138  377080  315349
    9265.25  430959  379106  321299
    9277.1  436655  386348  331674
    9289.03  436835  388881  338024
    9301.04  439011  393154  345678
    9313.13  440043  396399  352552
    9325.29  442215  400759  360677
    9337.52  443182  404103  368142
    9349.84  445446  408653  377013
    9362.23  446934  412455  385428
    9374.69  449047  416890  394522
    9387.24  450274  420595  403100
    9399.86  452088  424770  412452
    9412.55  453045  428176  421189
    9425.32  455418  433033  431744
    9438.17  457352  437496  441974
    9451.09  458865  441531  451954