File: data/Ni/Ni2O3_rt_01.xdi
# XDI/1.0
# Column.1: energy eV
# Column.2: i0
# Column.3: itrans
# Column.4: irefer
# Beamline.name: SSRL 4-1
# Detector.I0: N2 15cm
# Detector.I1: N2 30cm
# Detector.I2: N2 15cm
# Element.edge: K
# Element.symbol: Ni
# Mono.d_spacing: 3.13550
# Mono.name: Si(111)
# Mono.notes: unfocused, detuned 25%,counter clockwise
# Sample.formula: Ni2O3
# Sample.name: Ni2O3
# Sample.prep: powder, mixed 1:100 with B(OH)3 by wt
# Sample.reference: none
# Sample.temperature: room temperature
# Scan.start_time: 1997-01-17 17:59:41
# ///
#    Note: mono d_spacing is nominal!
#     exafs to K17
#     435  E XMU XMUR I0
#-------------
#   energy   i0   itrans  irefer
    8110  289576  186931  578508
    8130  288842  189064  583670
    8150  288350  191389  591459
    8170  287301  193358  600538
    8190  286918  195786  611992
    8210  285902  197765  623265
    8230  285439  200150  636113
    8250  284449  202138  648640
    8270  283378  204033  660818
    8290  281510  205313  671415
    8310  281485  207754  681141
    8311  281731  208051  682860
    8312  281498  207999  683206
    8313  281555  208147  683996
    8314  281375  208129  683964
    8315  281001  207976  683516
    8316  281303  208294  684286
    8317  281742  208713  684445
    8318  281493  208623  683931
    8319  281389  208640  683394
    8320  281196  208586  682164
    8321  279794  207621  678636
    8322  277183  205754  672436
    8323  274128  203559  665949
    8324  271173  201436  660110
    8325  270193  200754  657195
    8326  270768  201214  655572
    8327  273846  203556  656231
    8328  277651  206432  655221
    8329  281397  209182  648535
    8330  283156  210260  630786
    8331  283439  210198  599168
    8332  283398  209747  560343
    8333  282604  208818  522066
    8334  283094  208760  450215
    8335  282090  207533  373003
    8336  281904  206431  322895
    8337  281740  204538  289958
    8338  281498  201525  263378
    8339  281509  197107  236189
    8340  281353  191108  208065
    8341  281368  183481  179237
    8342  281794  175223  152361
    8343  282024  166315  126694
    8344  282911  156744  102139
    8345  282634  145837  79431.1
    8346  282609  134427  59836.1
    8347  282613  124016  45477.1
    8348  283076  115518  36077.1
    8349  282874  108956  30688.1
    8350  282513  105158  28315.1
    8351  282614  105074  28155.1
    8352  282044  108771  29493.1
    8353  282194  115231  31533.1
    8354  282209  121758  33053.1
    8355  282487  127283  33576.1
    8356  281990  131640  33184.1
    8357  282150  135870  32733.1
    8358  282124  140312  32819.1
    8359  282382  144707  33751.1
    8360  282232  148080  35174.1
    8361  281794  149669  36541.1
    8362  281965  149874  37645.1
    8363  282702  148886  38590.1
    8364  282409  146583  39211.1
    8365  282401  144346  39901.1
    8366  282337  142907  40669.1
    8367  282596  142832  41502.1
    8368  282400  143476  42216.1
    8369  282576  144789  42857.1
    8370  282752  146227  43311.1
    8371.78  282655  148243  43141.1
    8373.65  282432  150015  41681.1
    8375.58  282896  152077  39269.1
    8377.6  282833  152700  36169.1
    8379.69  282255  151412  32899
    8381.85  282230  149301  30769
    8384.1  282844  147645  30808
    8386.42  283234  146255  32872
    8388.81  283069  143397  35756
    8391.28  283170  139008  38123.9
    8393.83  283506  135194  39639.9
    8396.46  283525  132843  40006.8
    8399.16  284101  131989  39914.8
    8401.94  284406  133050  40706.8
    8404.78  284160  136290  41828.7
    8407.72  284527  140553  42155.7
    8410.72  284911  144784  42073.6
    8413.81  285147  148333  41743.5
    8416.96  285539  151441  40494.5
    8420.2  286078  153372  38837.4
    8423.51  286207  153495  36616.3
    8426.89  287128  152544  33868.3
    8430.36  287071  150950  31686.2
    8433.9  288372  151311  31985.1
    8437.51  288703  151488  34354
    8441.21  289174  151239  37736
    8444.97  289611  149668  40900.9
    8448.82  290443  148427  43347.8
    8452.74  290732  149198  47666.7
    8456.74  291364  152208  52980.5
    8460.81  292112  156529  55580.5
    8464.96  292590  160234  54334.4
    8469.19  293609  160961  50559.3
    8473.49  294132  157740  46854.1
    8477.87  295070  155088  46123
    8482.33  295627  155863  46816.9
    8486.85  296003  158441  43917.8
    8491.47  297164  159891  38584.6
    8496.15  297906  159469  35819.5
    8500.91  297884  158627  35387.4
    8505.75  299910  159981  37733.2
    8510.66  300349  162073  43693.1
    8515.65  300763  165684  53912.9
    8520.71  301955  170754  65886.8
    8525.86  302819  174927  70714.6
    8531.07  304046  176356  65714.5
    8536.37  304693  174081  58124.3
    8541.74  305742  171334  53663.1
    8547.19  306278  169763  53020
    8552.71  307338  170496  54599.8
    8558.31  308330  172374  57274.6
    8563.99  309808  174818  59604.5
    8569.74  310680  176721  56675.3
    8575.57  311799  178527  52707.1
    8581.47  312634  180560  51427.9
    8587.45  313929  182581  53154.8
    8593.51  314845  183664  58452.5
    8599.64  316154  185759  66281.4
    8605.85  317282  188570  72589.2
    8612.14  318387  190671  74736
    8618.5  318523  191066  74841.7
    8624.94  319953  191510  75317.5
    8631.45  322690  192526  75669.3
    8638.05  323265  192817  74316.1
    8644.71  324599  194333  73263.9
    8651.46  325994  196496  73240.7
    8658.28  326774  199675  73698.4
    8665.17  328442  203252  73738.2
    8672.15  329468  204880  73783
    8679.19  330570  205939  76543.7
    8686.32  331433  207438  81326.5
    8693.52  333368  209904  85822.2
    8700.81  334780  211044  86924
    8708.16  335794  211777  88520.7
    8715.58  337159  212805  93212.5
    8723.1  338202  214236  95778.2
    8730.68  339931  216976  97442
    8738.34  341131  219938  98755.7
    8746.08  342673  223777  100009
    8753.89  344323  226440  100573
    8761.77  345789  227644  100604
    8769.74  347103  229091  100989
    8777.78  348473  231403  102315
    8785.9  349852  233615  105276
    8794.09  351671  236167  110262
    8802.36  352947  238013  114145
    8810.7  354150  239824  116144
    8819.13  355118  241048  117605
    8827.63  351047  239349  118892
    8836.2  357467  245457  124982
    8844.85  362103  250416  129529
    8853.59  362619  252612  132747
    8862.38  364158  255533  135662
    8871.27  365667  258043  137240
    8880.22  367679  260751  138314
    8889.26  369089  263365  138935
    8898.37  370514  265778  140631
    8907.55  371993  267741  144797
    8916.81  373776  269653  149923
    8926.15  375517  272591  154434
    8935.57  376043  275281  158150
    8945.06  377971  278456  161862
    8954.62  380210  281529  165873
    8964.26  381536  284392  169904
    8973.98  384089  288155  174988
    8983.78  385540  290682  178862
    8993.65  386631  293090  182130
    9003.6  388172  295884  185492
    9013.63  389781  298746  188629
    9023.73  391446  301446  191784
    9033.9  393072  304433  195885
    9044.16  394439  307615  200498
    9054.49  396412  311129  205854
    9064.89  397397  313719  210802
    9075.38  398981  316642  215685
    9085.93  399217  318849  220390
    9096.57  403244  324221  227202
    9107.28  404004  326849  232279
    9118.07  406686  330962  238553
    9128.93  407018  333135  243423
    9139.87  409710  337053  249007
    9150.89  411911  340493  253871
    9161.98  413341  343809  258926
    9173.15  414527  347053  264581
    9184.4  417376  351666  271697
    9195.72  418644  354898  277451
    9207.11  420473  358667  283779
    9218.59  422021  362114  290402
    9230.13  423709  365753  297567
    9241.76  423369  367637  303304
    9253.47  427331  373188  312057
    9265.25  426975  375051  317859
    9277.1  430865  380673  326809
    9289.03  433011  384949  334608
    9301.04  435011  389032  342040
    9313.13  435688  391948  348581
    9325.29  437596  396046  356415
    9337.52  439795  400486  364820
    9349.84  441511  404512  373168
    9362.23  443123  408435  381638
    9374.69  444104  411784  389681
    9387.24  446080  416170  398856
    9399.86  447661  420095  407900
    9412.55  449517  424328  417412
    9425.32  450611  427976  426661
    9438.17  452951  432758  437166
    9451.09  455287  437595  447897