File: data/Ni/Ni_metal_rt_02.xdi
# XDI/1.0
# Column.1: energy eV
# Column.2: i0
# Column.3: itrans
# Beamline.name: APS 13-ID-C
# Beamline.notes: vert slits = 0.3mm
# Detector.I0: N2 10cm
# Detector.I1: N2 10cm
# Element.edge: K
# Element.symbol: Ni
# Mono.d_spacing: 3.13550
# Mono.name: Si(111)
# Mono.notes: focussed, detuned 50%
# Sample.formula: Ni
# Sample.name: Ni foil  Room Temperature
# Sample.prep: metal foil
# Sample.reference: none
# Sample.temperature: Room Temperature
# Scan.start_time: 2001-06-26 21:58:18
# ///
#    Note: mono d_spacing is nominal!
#     data from ni_foil.001
#     418 E XMU I0
#-------------
#   energy   i0   itrans
    8133  156032  508820
    8153  128784  422729
    8173  117445  388217
    8193  116769  388856
    8213  116587  391436
    8233  116118  392733
    8253  116781  394427
    8273  116202  398288
    8293  115151  396827
    8313  115760  398596
    8314  119490  411266
    8315  119845  412312
    8316  120740  415020
    8317  120387  413462
    8318  120258  412535
    8319  120278  412191
    8320  119020  407275
    8321  120304  410791
    8322  120215  409580
    8323  120134  408149
    8324  120240  407165
    8325  119740  403496
    8326  120014  401838
    8327  120093  398373
    8328  119727  391705
    8329  119556  380924
    8330  118368  352422
    8331  116766  294731
    8332  110815  224157
    8333  108023  180964
    8334  132853  194617
    8335  136359  187167
    8336  125296  163580
    8337  121250  146520
    8338  120280  132315
    8339  120033  121753
    8340  119719  112352
    8341  120660  101672
    8342  120143  87713.1
    8343  120374  73496.1
    8344  120094  60867.1
    8345  120287  50039.1
    8346  120284  42139.1
    8347  120147  37714.1
    8348  120378  36276.1
    8349  120189  36239.1
    8350  120143  37160.1
    8351  120543  38628.1
    8352  120215  39348.1
    8353  120398  39020.1
    8354  120282  37083.1
    8355  119358  34307.1
    8356  120438  32811.1
    8357  120507  32456.1
    8358  120564  33228.1
    8359.99  120087  35248.1
    8362.05  120082  37240.1
    8364.19  120002  40121.1
    8366.41  120127  41553.1
    8368.7  120299  41998.1
    8371.07  120699  40995.1
    8373.52  119931  37615.1
    8376.04  120388  34071.1
    8378.64  119797  30332.1
    8381.31  119600  28966.1
    8384.06  119453  30671.1
    8386.88  120274  34689.1
    8389.78  119985  38507.1
    8392.76  120167  41423.1
    8395.82  120563  42303.1
    8398.95  120012  42082.1
    8402.15  119751  42805.1
    8405.43  119698  42073.1
    8408.79  118745  40308.1
    8412.23  120054  39630.1
    8415.74  119706  37384.1
    8419.32  120094  35517.1
    8422.99  119974  33289.1
    8426.72  119719  30632.1
    8430.54  119269  29255.1
    8434.43  119727  30628.1
    8438.4  120005  33668.1
    8442.44  114176  35420.1
    8446.56  121081  40126.1
    8450.75  120081  43036.1
    8455.02  119323  46965.1
    8459.37  120018  48493.1
    8463.79  120137  46556.1
    8468.29  119723  42878.1
    8472.87  120339  40824.1
    8477.52  119850  41036.1
    8482.25  120135  41326.1
    8487.05  120169  37122.1
    8491.93  120194  32555.1
    8496.89  120128  31260.1
    8501.92  119961  31496.1
    8507.03  119881  34500.1
    8512.21  119766  40445.1
    8517.47  119904  48706.1
    8522.81  120153  54108.1
    8528.22  119908  51688.1
    8533.71  119979  46348.1
    8539.27  119864  42778.1
    8544.91  119867  42276.1
    8550.63  119582  42925.1
    8556.42  119679  44367.1
    8562.29  119547  45758.1
    8568.24  119448  43385.1
    8574.26  120037  40128.1
    8580.35  120251  38836.1
    8586.53  119311  39323.1
    8592.78  119342  42896.1
    8599.1  119260  47762.1
    8605.5  120024  51137.1
    8611.98  119500  51327.1
    8618.53  119920  51444.1
    8625.16  119478  51429.1
    8631.87  119444  51124.1
    8638.65  119489  50011.1
    8645.51  119861  49270.1
    8652.44  119640  48760.1
    8659.45  120252  48407.1
    8666.54  119468  47145.1
    8673.7  119725  47671.1
    8680.94  120567  49954.1
    8688.26  120009  52241.1
    8695.65  119793  53155.1
    8703.11  119985  53253.1
    8710.66  118886  54481.1
    8718.27  119253  56482.1
    8725.97  120134  57189.1
    8733.74  118902  56608.1
    8741.59  121551  57678.1
    8749.51  120026  56552.1
    8757.51  119953  56120.1
    8765.58  119551  55713.1
    8773.74  119439  55589.1
    8781.96  120187  56668.1
    8790.27  119295  57880.1
    8798.65  122493  61150.1
    8807.1  118992  59886.1
    8815.64  119837  60577.1
    8824.24  119692  61170.1
    8832.93  118906  62005.1
    8841.69  120041  63547.1
    8850.52  119765  64186.1
    8859.44  119481  64704.1
    8868.42  121015  65531.1
    8877.49  120173  64964.1
    8886.63  119894  64290.1
    8895.85  119393  64023.1
    8905.14  119136  64897.1
    8914.51  119435  66638.1
    8923.95  119185  67501.1
    8933.47  119544  68507.1
    8943.07  119198  68901.1
    8952.74  119692  69921.1
    8962.49  119934  70956.1
    8972.32  119695  71598.1
    8982.22  119418  72137.1
    8992.2  119821  72982.1
    9002.25  119305  73038.1
    9012.38  119211  73350.1
    9022.58  119471  73885.1
    9032.87  119381  74640.1
    9043.23  119907  75506.1
    9053.66  119092  75947.1
    9064.17  119439  77034.1
    9074.76  119656  78010.1
    9085.42  119251  78577.1
    9096.16  119501  79595.1
    9106.97  119253  80415.1
    9117.86  119463  81285.1
    9128.83  119404  82213.1
    9139.87  119684  83048.1
    9150.99  119557  83461.1
    9162.18  119868  84301.1
    9173.45  119360  84733.1
    9184.8  119991  86059.1
    9196.23  119531  86446.1
    9207.72  119913  87542.1
    9219.3  120123  88638.1
    9230.95  119481  89151.1
    9242.68  119104  89745.1
    9254.48  119968  91347.1
    9266.36  119775  92087.1
    9278.32  119655  92873.1
    9290.35  119010  93198.1
    9302.46  119128  94071.1
    9314.64  118959  94855.1
    9326.9  118505  95294.1
    9339.24  120005  97378.1
    9351.65  120138  98374.1
    9364.14  119712  98960.1
    9376.7  119730  99922.1
    9389.34  118746  100115
    9402.06  120119  102287
    9414.85  119692  102861
    9427.72  119561  103765
    9440.66  119542  104825
    9453.69  119961  106222
    9466.78  119421  106679
    9479.95  119555  107883
    9493.2  119557  108865
    9506.53  119753  110068
    9519.93  120275  111614
    9533.41  120495  112902
    9546.96  119195  112623
    9560.59  119605  114220
    9567.43  119523  114688