File: data/Ni/Ni_metal_rt_01.xdi
# XDI/1.0
# Column.1: energy eV
# Column.2: i0
# Column.3: itrans
# Beamline.name: APS 13-ID-C
# Beamline.notes: vert slits = 0.3mm
# Detector.I0: N2 10cm
# Detector.I1: N2 10cm
# Element.edge: K
# Element.symbol: Ni
# Mono.d_spacing: 3.13550
# Mono.name: Si(111)
# Mono.notes: focussed, detuned 50%
# Sample.formula: Ni
# Sample.name: Ni foil  Room Temperature
# Sample.prep: metal foil
# Sample.reference: none
# Sample.temperature: Room Temperature
# Scan.start_time: 2001-06-26 21:46:07
# ///
#    Note: mono d_spacing is nominal!
#     data from ni_foil.001
#     418 E XMU I0
#-------------
#   energy   i0   itrans
    8133  151942  498119
    8153  126261  414394
    8173  117712  387568
    8193  116418  388066
    8213  115658  387150
    8233  115895  392096
    8253  116690  396633
    8273  116289  398899
    8293  116616  400723
    8313  116212  399842
    8314  119028  409867
    8315  120605  415212
    8316  120303  413722
    8317  120276  413173
    8318  120270  412728
    8319  120458  412761
    8320  120266  411606
    8321  120328  411113
    8322  119938  408813
    8323  118336  402139
    8324  120000  406246
    8325  120533  406311
    8326  119871  401410
    8327  119981  398126
    8328  119672  391484
    8329  118925  378966
    8330  118553  353361
    8331  116607  294780
    8332  111554  226596
    8333  107994  180808
    8334  134421  196921
    8335  135549  186096
    8336  124518  162682
    8337  121365  146811
    8338  119818  131714
    8339  119794  121292
    8340  119939  112514
    8341  120315  101258
    8342  120248  87585.1
    8343  120435  73395.1
    8344  120047  60664.1
    8345  119937  49904.1
    8346  120425  42098.1
    8347  120286  37792.1
    8348  120197  36199.1
    8349  119876  36193.1
    8350  120233  37239.1
    8351  119908  38492.1
    8352  120286  39416.1
    8353  120198  38907.1
    8354  119951  36933.1
    8355  120003  34473.1
    8356  120180  32764.1
    8357  119810  32259.1
    8358  119817  33037.1
    8359.99  120484  35399.1
    8362.05  120461  37403.1
    8364.19  120685  40324.1
    8366.41  120654  41728.1
    8368.7  120274  41980.1
    8371.07  120199  40706.1
    8373.52  120178  37653.1
    8376.04  120068  33884.1
    8378.64  120265  30496.1
    8381.31  120287  29142.1
    8384.06  120041  30755.1
    8386.88  119733  34578.1
    8389.78  119903  38537.1
    8392.76  120023  41412.1
    8395.82  119988  42080.1
    8398.95  120077  42167.1
    8402.15  119974  42827.1
    8405.43  119719  42056.1
    8408.79  118994  40370.1
    8412.23  120462  39831.1
    8415.74  119450  37289.1
    8419.32  119784  35418.1
    8422.99  119865  33212.1
    8426.72  119841  30682.1
    8430.54  119751  29393.1
    8434.43  119805  30665.1
    8438.4  119656  33558.1
    8442.44  113682  35292.1
    8446.56  121266  40212.1
    8450.75  120136  43109.1
    8455.02  119871  47174.1
    8459.37  119736  48439.1
    8463.79  119833  46474.1
    8468.29  119481  42846.1
    8472.87  120255  40839.1
    8477.52  119837  41060.1
    8482.25  119933  41390.1
    8487.05  120225  37160.1
    8491.93  120193  32630.1
    8496.89  119779  31182.1
    8501.92  119358  31354.1
    8507.03  119767  34489.1
    8512.21  119636  40387.1
    8517.47  119629  48909.1
    8522.81  119709  53896.1
    8528.22  119857  51638.1
    8533.71  119505  46208.1
    8539.27  119768  42807.1
    8544.91  119560  42207.1
    8550.63  119100  42761.1
    8556.42  119786  44533.1
    8562.29  119521  45803.1
    8568.24  119529  43467.1
    8574.26  119478  39998.1
    8580.35  119828  38733.1
    8586.53  119619  39454.1
    8592.78  119903  43201.1
    8599.1  120085  48273.1
    8605.5  119997  51186.1
    8611.98  119269  51301.1
    8618.53  118895  51001.1
    8625.16  119344  51421.1
    8631.87  119210  51126.1
    8638.65  119331  49963.1
    8645.51  119282  49079.1
    8652.44  119125  48555.1
    8659.45  119638  48215.1
    8666.54  119458  47233.1
    8673.7  119027  47477.1
    8680.94  120670  50091.1
    8688.26  119870  52190.1
    8695.65  119335  53041.1
    8703.11  118998  52851.1
    8710.66  119119  54631.1
    8718.27  119842  56861.1
    8725.97  119582  56969.1
    8733.74  118723  56572.1
    8741.59  121607  57812.1
    8749.51  120112  56639.1
    8757.51  119209  55819.1
    8765.58  119169  55567.1
    8773.74  119604  55778.1
    8781.96  119698  56468.1
    8790.27  118899  57753.1
    8798.65  122276  61091.1
    8807.1  118551  59701.1
    8815.64  119576  60506.1
    8824.24  119409  61104.1
    8832.93  118978  62144.1
    8841.69  119652  63342.1
    8850.52  119327  64032.1
    8859.44  119198  64544.1
    8868.42  120347  65199.1
    8877.49  119894  64741.1
    8886.63  120068  64481.1
    8895.85  118934  63804.1
    8905.14  118518  64657.1
    8914.51  119514  66719.1
    8923.95  119228  67652.1
    8933.47  119236  68431.1
    8943.07  118816  68773.1
    8952.74  118528  69243.1
    8962.49  119300  70510.1
    8972.32  119080  71361.1
    8982.22  119632  72454.1
    8992.2  119795  73023.1
    9002.25  119612  73358.1
    9012.38  119379  73502.1
    9022.58  119245  73802.1
    9032.87  117822  73528.1
    9043.23  119469  75317.1
    9053.66  119452  76213.1
    9064.17  118855  76698.1
    9074.76  118999  77656.1
    9085.42  119408  78808.1
    9096.16  119085  79376.1
    9106.97  119163  80275.1
    9117.86  119320  81253.1
    9128.83  119164  81977.1
    9139.87  119691  83018.1
    9150.99  118987  83084.1
    9162.18  119352  83935.1
    9173.45  119036  84580.1
    9184.8  119204  85546.1
    9196.23  119282  86306.1
    9207.72  119121  87000.1
    9219.3  119493  88222.1
    9230.95  119416  89125.1
    9242.68  118726  89522.1
    9254.48  119284  90920.1
    9266.36  119279  91805.1
    9278.32  119258  92675.1
    9290.35  118979  93296.1
    9302.46  119068  94170.1
    9314.64  119219  95094.1
    9326.9  119438  96116.1
    9339.24  119282  96848.1
    9351.65  119693  98117.1
    9364.14  119734  99082.1
    9376.7  119682  99941.1
    9389.34  118496  99954.1
    9402.06  119766  102000
    9414.85  119145  102497
    9427.72  119305  103645
    9440.66  119314  104730
    9453.69  118925  105388
    9466.78  118932  106345
    9479.95  118798  107219
    9493.2  119248  108670
    9506.53  119518  109972
    9519.93  119189  110679
    9533.41  118856  111315
    9546.96  119624  113228
    9560.59  119915  114642
    9567.43  119513  114748