File: data/Ni/ni_metal_rt.xdi
# XDI/1.0 GSE/1.0
# Column.1: energy eV
# Column.2: mutrans
# Column.3: i0
# Element.edge: K
# Element.symbol: Ni
# Scan.edge_energy: 8333.0
# Mono.name: Si 111
# Mono.d_spacing: 3.13555
# Beamline.name: 13-ID-C
# Beamline.collimation: none
# Beamline.harmonic_rejection: detuned
# Facility.name: APS
# Facility.energy: 7.00 GeV
# Facility.xray_source: APS undulator A
# Scan.start_time: 2001-06-26T21:46:07
# Detector.I0: 10cm  N2
# Detector.I1: 10cm  N2
# Sample.name: Ni metal foil
# Sample.prep: standard foil (Joe Wong boxed set)
# ///
# room temperature
# measured at beamline 13-ID-C
# vert slits = 0.3 x 0.3mm (at ~50m)
#----
#   energy      mutrans          i0
  8133       -1.18734        151941.70
  8153       -1.18847        126260.70
  8173       -1.19165        117711.70
  8193       -1.20399        116417.70
  8213       -1.20818        115657.70
  8233       -1.21882        115894.70
  8253       -1.22349        116689.70
  8273       -1.23263        116288.70
  8293       -1.23439        116615.70
  8313       -1.23566        116211.70
  8314       -1.23648        119027.70
  8315       -1.23627        120604.70
  8316       -1.23518        120302.70
  8317       -1.23408        120275.70
  8318       -1.23305        120269.70
  8319       -1.23157        120457.70
  8320       -1.23036        120265.70
  8321       -1.22865        120327.70
  8322       -1.22629        119937.70
  8323       -1.22327        118335.70
  8324       -1.21947        119999.70
  8325       -1.2152        120532.70
  8326       -1.20857        119870.70
  8327       -1.19944        119980.70
  8328       -1.18519        119671.70
  8329       -1.15896        118924.70
  8330       -1.09213        118552.70
  8331      -0.927423        116606.70
  8332      -0.708663        111553.70
  8333      -0.515363        107993.70
  8334      -0.381829        134420.70
  8335      -0.316932        135548.70
  8336      -0.26735        124517.70
  8337      -0.190347        121364.70
  8338      -0.0946622    119817.70
  8339      -0.0124306    119793.70
  8340       0.0639022    119938.70
  8341       0.172438        120314.70
  8342       0.316943        120247.70
  8343       0.495251        120434.70
  8344       0.682529        120046.70
  8345       0.876861        119936.70
  8346        1.05102        120424.70
  8347        1.15777        120285.70
  8348        1.2001        120196.70
  8349        1.19759        119875.70
  8350        1.17207        120232.70
  8351        1.13627        119907.70
  8352        1.1157        120285.70
  8353        1.12796        120197.70
  8354        1.17797        119950.70
  8355        1.24733        120002.70
  8356        1.29965        120179.70
  8357        1.3121        119809.70
  8358        1.28833        119816.70
  8359.99        1.22483        120483.70
  8362.05        1.16957        120460.70
  8364.19        1.09623        120684.70
  8366.41        1.06175        120653.70
  8368.7        1.05257        120273.70
  8371.07        1.08277        120198.70
  8373.52        1.16056        120177.70
  8376.04        1.26511        120067.70
  8378.64        1.3721        120264.70
  8381.31        1.41769        120286.70
  8384.06        1.36177        120040.70
  8386.88        1.24204        119732.70
  8389.78        1.13506        119902.70
  8392.76        1.06411        120022.70
  8395.82        1.04781        119987.70
  8398.95        1.04649        120076.70
  8402.15        1.0301        119973.70
  8405.43        1.04614        119718.70
  8408.79        1.08098        118993.70
  8412.23        1.10668        120461.70
  8415.74        1.16419        119449.70
  8419.32        1.21846        119783.70
  8422.99        1.28345        119864.70
  8426.72        1.36248        119840.70
  8430.54        1.40465        119750.70
  8434.43        1.36274        119804.70
  8438.4        1.27134        119655.70
  8442.44        1.16974        113681.70
  8446.56        1.10382        121265.70
  8450.75        1.02489        120135.70
  8455.02       0.932569        119870.70
  8459.37       0.904979        119735.70
  8463.79       0.947201        119832.70
  8468.29        1.02554        119480.70
  8472.87        1.07997        120254.70
  8477.52        1.07109        119836.70
  8482.25        1.06389        119932.70
  8487.05        1.17413        120224.70
  8491.93        1.30386        120192.70
  8496.89        1.3458        119778.70
  8501.92        1.33678        119357.70
  8507.03        1.2449        119766.70
  8512.21        1.08594        119635.70
  8517.47       0.894429        119628.70
  8522.81       0.798003        119708.70
  8528.22       0.842037        119856.70
  8533.71       0.950201        119504.70
  8539.27        1.02885        119767.70
  8544.91        1.04123        119559.70
  8550.63        1.02433        119099.70
  8556.42       0.989472        119785.70
  8562.29       0.959138        119520.70
  8568.24        1.01155        119528.70
  8574.26        1.0943        119477.70
  8580.35        1.12936        119827.70
  8586.53        1.10917        119618.70
  8592.78        1.02081        119902.70
  8599.1       0.911323        120084.70
  8605.5       0.851996        119996.70
  8611.98       0.843667        119268.70
  8618.53       0.846391        118894.70
  8625.16       0.841959        119343.70
  8631.87       0.846589        119209.70
  8638.65       0.870614        119330.70
  8645.51       0.888055        119281.70
  8652.44       0.897472        119124.70
  8659.45       0.908796        119637.70
  8666.54       0.927867        119457.70
  8673.7       0.9191        119026.70
  8680.94       0.879214        120669.70
  8688.26       0.831512        119869.70
  8695.65       0.810865        119334.70
  8703.11       0.811626        118997.70
  8710.66       0.779517        119118.70
  8718.27       0.74556        119841.70
  8725.97       0.741491        119581.70
  8733.74       0.741275        118722.70
  8741.59       0.743594        121606.70
  8749.51       0.751723        120111.70
  8757.51       0.75876        119208.70
  8765.58       0.762949        119168.70
  8773.74       0.762802        119603.70
  8781.96       0.751294        119697.70
  8790.27       0.722095        118898.70
  8798.65       0.693912        122275.70
  8807.1       0.68599        118550.70
  8815.64       0.681205        119575.70
  8824.24       0.669973        119408.70
  8832.93       0.64948        118977.70
  8841.69       0.636035        119651.70
  8850.52       0.622481        119326.70
  8859.44       0.613435        119197.70
  8868.42       0.612931        120346.70
  8877.49       0.616209        119893.70
  8886.63       0.621684        120067.70
  8895.85       0.622749        118933.70
  8905.14       0.605964        118517.70
  8914.51       0.58294        119513.70
  8923.95       0.566657        119227.70
  8933.47       0.555275        119235.70
  8943.07       0.546761        118815.70
  8952.74       0.537523        118527.70
  8962.49       0.525883        119299.70
  8972.32       0.51204        119079.70
  8982.22       0.501465        119631.70
  8992.2       0.495004        119794.70
  9002.25       0.488898        119611.70
  9012.38       0.484987        119378.70
  9022.58       0.479791        119244.70
  9032.87       0.471505        117821.70
  9043.23       0.461347        119468.70
  9053.66       0.449379        119451.70
  9064.17       0.438025        118854.70
  9074.76       0.426822        118998.70
  9085.42       0.415528        119407.70
  9096.16       0.405638        119084.70
  9106.97       0.39503        119162.70
  9117.86       0.384237        119319.70
  9128.83       0.374058        119163.70
  9139.87       0.365852        119690.70
  9150.99       0.359158        118986.70
  9162.18       0.352031        119351.70
  9173.45       0.341724        119035.70
  9184.8       0.331778        119203.70
  9196.23       0.323588        119281.70
  9207.72       0.314228        119120.70
  9219.3       0.303398        119492.70
  9230.95       0.29257        119415.70
  9242.68       0.28233        118725.70
  9254.48       0.271524        119283.70
  9266.36       0.261795        119278.70
  9278.32       0.252187        119257.70
  9290.35       0.243166        118978.70
  9302.46       0.23459        119067.70
  9314.64       0.226093        119218.70
  9326.9       0.217238        119437.70
  9339.24       0.208344        119281.70
  9351.65       0.198766        119692.70
  9364.14       0.189321        119733.70
  9376.7       0.180255        119681.70
  9389.34       0.170166        118495.70
  9402.06       0.160564        119765.70
  9414.85       0.150504        119144.70
  9427.72       0.140708        119304.70
  9440.66       0.13037        119313.70
  9453.69       0.120841        118924.70
  9466.78       0.11186        118931.70
  9479.95       0.102548        118797.70
  9493.2       0.0928862    119247.70
  9506.53       0.0832378    119517.70
  9519.93       0.0740729    119188.70
  9533.41       0.0655452    118855.70
  9546.96       0.0549466    119623.70
  9560.59       0.0449656    119914.70
  9567.43       0.0406834    119512.70