File: data/Ni/NiOH2_rt_03.xdi
# XDI/1.0
# Column.1: energy eV
# Column.2: i0
# Column.3: itrans
# Column.4: irefer
# Beamline.name: SSRL 4-1
# Detector.I0: N2 15cm
# Detector.I1: N2 30cm
# Detector.I2: N2 15cm
# Element.edge: K
# Element.symbol: Ni
# Mono.d_spacing: 3.13550
# Mono.name: Si(111)
# Mono.notes: unfocused, detuned 25%,counter clockwise
# Sample.formula: Ni_OH_2
# Sample.name: Ni(OH)2   nickel hydroxide
# Sample.prep: powder, mixed 1:100 with B(OH)3 by wt
# Sample.reference: none
# Sample.temperature: room temperature
# Scan.start_time: 1997-01-17 15:07:08
# ///
#    Note: mono d_spacing is nominal!
#     exafs to K17
#     435  E XMU XMUR I0
#-------------
#   energy   i0   itrans  irefer
    8110  218864  176692  500888
    8130  218234  178397  508664
    8150  217794  180278  517669
    8170  217031  181874  527268
    8190  216303  183506  537418
    8210  215487  185046  547790
    8230  214929  186801  558820
    8250  214041  188278  569574
    8270  212900  189490  579722
    8290  211445  190376  589312
    8310  211418  192433  597948
    8311  211360  192505  599811
    8312  211288  192534  601019
    8313  210956  192342  602063
    8314  210897  192353  603054
    8315  210838  192402  604069
    8316  210821  192524  604483
    8317  211264  193014  605804
    8318  210945  192856  605621
    8319  210908  192886  605782
    8320  210153  192281  604429
    8321  208833  191122  601653
    8322  206641  189220  596999
    8323  204481  187333  592847
    8324  202153  185299  588619
    8325  201614  184894  586874
    8326  202945  186121  587215
    8327  205511  188476  589156
    8328  208368  191119  587703
    8329  210478  193057  580003
    8330  211366  193912  564154
    8331  211137  193607  538319
    8332  210913  193260  506488
    8333  210771  193038  463932
    8334  210375  192665  386513
    8335  210113  192419  325884
    8336  209872  191950  287939
    8337  209475  190923  261860
    8338  209297  189619  239614
    8339  209133  187617  216181
    8340  209184  184993  192778
    8341  209628  181751  169535
    8342  209353  177381  146390
    8343  209545  173041  123441
    8344  209433  167984  100903
    8345  209619  162307  80616.1
    8346  209644  155238  62915.1
    8347  209741  148489  49948.1
    8348  209795  143200  41547.1
    8349  209434  140143  37429.1
    8350  209309  139590  36282.1
    8351  209217  140475  36727.1
    8352  208870  142316  37853.1
    8353  209309  145756  39143.1
    8354  208893  148965  39510.1
    8355  208858  152003  38917.1
    8356  208890  154546  37685.1
    8357  208662  156367  36530.1
    8358  208575  158008  36112.1
    8359  208820  159375  36636.1
    8360  208653  159913  37658.1
    8361  208823  160123  38836.1
    8362  208703  159745  39901.1
    8363  208531  159234  41062.1
    8364  208321  158832  42319.1
    8365  208904  159400  43867.1
    8366  208449  159541  45095.1
    8367  208539  160291  46119.1
    8368  208499  161098  46852.1
    8369  208335  161812  47282.1
    8370  208248  162676  47490.1
    8371.78  208444  164391  46926.1
    8373.65  208440  165474  44889.1
    8375.58  208246  165735  41590.1
    8377.6  208436  165525  38026.1
    8379.69  208387  164393  34674.1
    8381.85  208745  163349  32909.1
    8384.1  208363  161587  33265
    8386.42  208461  160121  35798
    8388.81  208461  158826  39492
    8391.28  208492  157890  43079.9
    8393.83  208318  157154  45605.9
    8396.46  208549  157214  46648.9
    8399.16  208714  157967  47025.8
    8401.94  208857  159103  47958.8
    8404.78  208996  160314  48420.7
    8407.72  209150  161295  47503.7
    8410.72  209305  162136  46290.6
    8413.81  209729  163107  45053.5
    8416.96  209488  163546  42851.5
    8420.2  209952  164585  40821.4
    8423.51  210437  165760  38652.4
    8426.89  210486  166498  36033.3
    8430.36  211184  167477  34380.2
    8433.9  211041  167584  34847.1
    8437.51  211408  167990  37653
    8441.21  211428  168310  41616
    8444.97  212256  169506  45872.9
    8448.82  212201  170068  49170.8
    8452.74  212914  171203  54311.7
    8456.74  212889  171281  59124.6
    8460.81  213514  171357  60094.5
    8464.96  213897  171227  57168.3
    8469.19  214145  171525  52960.2
    8473.49  214811  172307  50393.1
    8477.87  215194  172787  50733
    8482.33  215699  173544  51361.9
    8486.85  215964  174431  47302.8
    8491.47  216606  175893  41446.6
    8496.15  216867  177302  39059.5
    8500.91  217833  179332  39343.4
    8505.75  218050  180554  42058.2
    8510.66  218608  181540  48646.1
    8515.65  219260  182136  59132.9
    8520.71  219875  182773  70275.8
    8525.86  220249  183490  73430.6
    8531.07  220864  184507  67714.5
    8536.37  221510  185512  61029.3
    8541.74  222111  186390  57605.1
    8547.19  222784  187418  57899
    8552.71  223355  188737  59805.8
    8558.31  224041  190422  62705.7
    8563.99  224830  191827  64673.5
    8569.74  225372  192621  60835.3
    8575.57  225884  193452  56280.1
    8581.47  226419  194502  54706.9
    8587.45  227439  196081  56549.7
    8593.51  228098  197215  62401.6
    8599.64  228762  198367  70410.4
    8605.85  229381  199546  76297.2
    8612.14  229903  200775  78043
    8618.5  230430  202245  78576.7
    8624.94  231054  204009  79564.5
    8631.45  232807  206508  80440.3
    8638.05  233592  207906  79385.1
    8644.71  234402  209298  78174.9
    8651.46  234998  210596  77813.7
    8658.28  235925  212079  77599.4
    8665.17  236936  213533  76767.2
    8672.15  237678  214801  76769
    8679.19  238748  216489  79971.7
    8686.32  239301  217803  84929.5
    8693.52  240084  219536  89187.2
    8700.81  241100  221609  90637
    8708.16  241692  223134  92741.8
    8715.58  242878  225099  98103.5
    8723.1  243860  226877  100789
    8730.68  244667  228571  102020
    8738.34  245650  230410  102822
    8746.08  246936  232517  103267
    8753.89  247789  234184  103380
    8761.77  248626  235880  103619
    8769.74  249475  237637  104134
    8777.78  250491  239741  105412
    8785.9  251518  241860  108465
    8794.09  252382  243776  113318
    8802.36  253038  245473  117179
    8810.7  254500  247895  119472
    8819.13  255133  249491  121160
    8827.63  251296  246776  122078
    8836.2  256186  252608  128094
    8844.85  259289  256717  132250
    8853.59  259880  258412  135267
    8862.38  260571  260355  137730
    8871.27  261723  262660  139132
    8880.22  262693  264851  139903
    8889.26  263649  267043  140287
    8898.37  264808  269475  142070
    8907.55  265946  271865  146617
    8916.81  266771  273924  151835
    8926.15  267774  276164  155971
    8935.57  268611  278254  159361
    8945.06  269506  280393  162502
    8954.62  270858  283017  166274
    8964.26  272258  285795  170296
    8973.98  272854  287770  174292
    8983.78  274048  290378  178208
    8993.65  274855  292562  181337
    9003.6  275880  295008  184506
    9013.63  276807  297392  187315
    9023.73  278473  300571  190777
    9033.9  278887  302415  194160
    9044.16  280414  305479  198701
    9054.49  280946  307462  203047
    9064.89  281542  309572  207643
    9075.38  283068  312726  212645
    9085.93  282201  313266  216162
    9096.57  284948  317847  222362
    9107.28  286010  320536  227437
    9118.07  287532  323796  233053
    9128.93  287345  325158  237257
    9139.87  289256  328855  242592
    9150.89  289915  331154  246577
    9161.98  290993  333936  251162
    9173.15  292075  336778  256464
    9184.4  292720  339120  261723
    9195.72  294264  342562  267532
    9207.11  294244  344226  272090
    9218.59  295412  347217  278237
    9230.13  296507  350224  284704
    9241.76  295324  350481  288919
    9253.47  298092  355447  296994
    9265.25  297880  356854  302224
    9277.1  299994  361175  309872
    9289.03  300730  363805  316042
    9301.04  301514  366482  322052
    9313.13  302959  370011  328913
    9325.29  303248  372158  334797
    9337.52  304338  375286  341743
    9349.84  305043  377980  348614
    9362.23  305831  380776  355742
    9374.69  306700  383756  363110
    9387.24  307582  386737  370627
    9399.86  308386  389638  378315
    9412.55  309031  392374  385982
    9425.32  310334  395903  394763
    9438.17  311353  399173  403319
    9451.09  311777  401659  411242