File: data/Ni/NiOH2_rt_01.xdi
# XDI/1.0
# Column.1: energy eV
# Column.2: i0
# Column.3: itrans
# Column.4: irefer
# Beamline.name: SSRL 4-1
# Detector.I0: N2 15cm
# Detector.I1: N2 30cm
# Detector.I2: N2 15cm
# Element.edge: K
# Element.symbol: Ni
# Mono.d_spacing: 3.13550
# Mono.name: Si(111)
# Mono.notes: unfocused, detuned 25%,counter clockwise
# Sample.formula: Ni_OH_2
# Sample.name: Ni(OH)2   nickel hydroxide
# Sample.prep: powder, mixed 1:100 with B(OH)3 by wt
# Sample.reference: none
# Sample.temperature: room temperature
# Scan.start_time: 1997-01-17 15:07:08
# ///
#    Note: mono d_spacing is nominal!
#     exafs to K17
#     435  E XMU XMUR I0
#-------------
#   energy   i0   itrans  irefer
    8110  217540  175297  515936
    8130  217529  177477  522348
    8150  216702  179001  529189
    8170  215739  180426  536659
    8190  215334  182282  545193
    8210  214686  184007  554119
    8230  214017  185614  563645
    8250  213109  187021  573414
    8270  212047  188255  582807
    8290  210915  189404  592171
    8310  210425  191061  599649
    8311  210877  191564  602526
    8312  210618  191419  603375
    8313  210299  191228  604142
    8314  210221  191239  605146
    8315  209926  191039  605517
    8316  210341  191523  606850
    8317  210598  191835  607250
    8318  210557  191887  607790
    8319  210260  191663  607390
    8320  209743  191302  606419
    8321  208817  190500  604359
    8322  206564  188548  599893
    8323  204463  186716  595873
    8324  202437  184973  592733
    8325  201557  184228  590704
    8326  202095  184736  589496
    8327  204497  186903  590715
    8328  207539  189707  590291
    8329  210161  192173  584402
    8330  211270  193179  571240
    8331  211200  193036  549065
    8332  211329  192989  519368
    8333  211064  192633  480623
    8334  210520  192090  403874
    8335  210125  191749  336661
    8336  210160  191612  294875
    8337  209814  190742  267104
    8338  209512  189440  244460
    8339  209579  187801  221449
    8340  209349  185141  197698
    8341  209358  181708  173911
    8342  209484  177744  150997
    8343  209633  173466  128160
    8344  209859  168792  105460
    8345  210254  163517  84769.1
    8346  210214  156547  66169.1
    8347  210374  149650  52194.1
    8348  210201  143749  42760.1
    8349  210020  140306  37921.1
    8350  209894  139336  36311.1
    8351  209737  139943  36500.1
    8352  209720  141752  37589.1
    8353  209749  144761  38865.1
    8354  209583  148067  39470.1
    8355  209575  151219  39092.1
    8356  209673  153950  37960.1
    8357  209562  155957  36743.1
    8358  209310  157529  36096.1
    8359  209389  158915  36426.1
    8360  209592  159854  37434.1
    8361  209377  159882  38546.1
    8362  209498  159737  39670.1
    8363  209511  159346  40836.1
    8364  209681  159188  42138.1
    8365  209522  159111  43533.1
    8366  209496  159505  44900.1
    8367  209632  160276  45995.1
    8368  209548  161001  46761.1
    8369  209273  161636  47214.1
    8370  209530  162741  47556.1
    8371.78  209287  164133  47041.1
    8373.65  209340  165320  45149.1
    8375.58  209426  165887  41998.1
    8377.6  209434  165603  38375.1
    8379.69  209488  164637  34974.1
    8381.85  209479  163281  32954
    8384.1  209511  161843  33165
    8386.42  209485  160267  35527
    8388.81  209636  159063  39224
    8391.28  209652  158075  42862.9
    8393.83  209765  157532  45574.9
    8396.46  209914  157488  46717.9
    8399.16  210172  158254  47095.8
    8401.94  210093  159219  47956.8
    8404.78  210531  160615  48565.7
    8407.72  210287  161354  47631.7
    8410.72  210525  162233  46405.6
    8413.81  210781  163060  45150.5
    8416.96  211304  164129  43141.5
    8420.2  211100  164646  40949.4
    8423.51  211749  165914  38835.4
    8426.89  211830  166683  36242.3
    8430.36  212270  167499  34446.2
    8433.9  212470  167847  34799.1
    8437.51  212850  168291  37510
    8441.21  212934  168642  41457.9
    8444.97  213471  169595  45710.9
    8448.82  213882  170517  49091.7
    8452.74  214179  171355  54046.6
    8456.74  214517  171777  59100.6
    8460.81  215001  171753  60316.4
    8464.96  215456  171659  57558.3
    8469.19  215859  172046  53381.2
    8473.49  216158  172549  50550.1
    8477.87  216884  173300  50820
    8482.33  217078  173763  51505.9
    8486.85  217590  174848  47768.8
    8491.47  218255  176320  41801.6
    8496.15  218856  177992  39275.5
    8500.91  219234  179587  39367.4
    8505.75  219512  180843  41942.2
    8510.66  220373  182080  48422.1
    8515.65  220833  182547  58744
    8520.71  221703  183370  70121.8
    8525.86  222145  184169  73792.6
    8531.07  222685  185129  68330.5
    8536.37  223531  186285  61554.3
    8541.74  223884  186963  57869.2
    8547.19  224413  187862  57992
    8552.71  225109  189290  59906.8
    8558.31  226009  191116  62821.7
    8563.99  226507  192311  64873.5
    8569.74  227208  193218  61278.3
    8575.57  228024  194279  56670.1
    8581.47  228637  195415  54987.9
    8587.45  229302  196673  56581.7
    8593.51  229939  197791  62297.5
    8599.64  230705  199035  70368.3
    8605.85  231755  200584  76562.2
    8612.14  232099  201649  78398
    8618.5  232704  203183  78944.7
    8624.94  233387  204996  79933.5
    8631.45  234934  207345  80789.3
    8638.05  235658  208677  79746.1
    8644.71  236371  210003  78486.9
    8651.46  237300  211542  78187.7
    8658.28  238502  213300  78074.4
    8665.17  238965  214303  77081.2
    8672.15  239880  215668  77040
    8679.19  241158  217526  80237.7
    8686.32  241139  218355  85005.5
    8693.52  242399  220517  89533.2
    8700.81  243471  222632  91038
    8708.16  244348  224445  93178.7
    8715.58  245187  226097  98401.5
    8723.1  246304  228014  101265
    8730.68  247112  229743  102516
    8738.34  248093  231612  103350
    8746.08  248818  233187  103564
    8753.89  250276  235434  103936
    8761.77  250899  236921  104055
    8769.74  252045  238999  104730
    8777.78  252791  240806  105844
    8785.9  254040  243140  108950
    8794.09  254656  244827  113698
    8802.36  255814  246967  117827
    8810.7  256807  248956  119962
    8819.13  257394  250556  121633
    8827.63  253848  248145  122659
    8836.2  258954  254201  128828
    8844.85  261652  257893  132796
    8853.59  262225  259568  135815
    8862.38  263416  261917  138467
    8871.27  264042  263825  139764
    8880.22  265322  266305  140659
    8889.26  266346  268567  141067
    8898.37  267751  271227  142943
    8907.55  268308  273024  147105
    8916.81  269285  275269  152467
    8926.15  270161  277336  156543
    8935.57  270899  279331  159880
    8945.06  272038  281725  163191
    8954.62  273761  284790  167210
    8964.26  274411  286764  170770
    8973.98  275715  289476  175232
    8983.78  276545  291664  178928
    8993.65  277347  293822  182032
    9003.6  278736  296651  185460
    9013.63  279580  298975  188252
    9023.73  280583  301463  191263
    9033.9  281384  303715  194901
    9044.16  282690  306528  199260
    9054.49  284327  309688  204390
    9064.89  283826  310627  208210
    9075.38  284999  313386  212992
    9085.93  284859  314754  217083
    9096.57  287540  319256  223244
    9107.28  288013  321305  227872
    9118.07  290404  325526  234160
    9128.93  289814  326435  238062
    9139.87  291624  330055  243384
    9150.89  292567  332713  247620
    9161.98  294276  336255  252733
    9173.15  294669  338268  257452
    9184.4  295692  341059  263063
    9195.72  296502  343624  268215
    9207.11  297848  346853  274014
    9218.59  298071  348748  279343
    9230.13  299177  351797  285802
    9241.76  298829  353061  290861
    9253.47  301398  357862  298794
    9265.25  300697  358721  303630
    9277.1  303085  363356  311566
    9289.03  304037  366289  317987
    9301.04  305172  369443  324477
    9313.13  305912  372127  330616
    9325.29  306602  374776  336964
    9337.52  307861  378126  344174
    9349.84  308898  381227  351412
    9362.23  309667  384049  358597
    9374.69  310304  386733  365725
    9387.24  310915  389363  372942
    9399.86  312085  392704  381092
    9412.55  312517  395175  388535
    9425.32  313690  398565  397183
    9438.17  314833  402002  405951
    9451.09  315889  405319  414745