File: data/Ni/NiOH2_rt_02.xdi
# XDI/1.0
# Column.1: energy eV
# Column.2: i0
# Column.3: itrans
# Column.4: irefer
# Beamline.name: SSRL 4-1
# Detector.I0: N2 15cm
# Detector.I1: N2 30cm
# Detector.I2: N2 15cm
# Element.edge: K
# Element.symbol: Ni
# Mono.d_spacing: 3.13550
# Mono.name: Si(111)
# Mono.notes: unfocused, detuned 25%,counter clockwise
# Sample.formula: Ni_OH_2
# Sample.name: Ni(OH)2   nickel hydroxide
# Sample.prep: powder, mixed 1:100 with B(OH)3 by wt
# Sample.reference: none
# Sample.temperature: room temperature
# Scan.start_time: 1997-01-17 15:07:08
# ///
#    Note: mono d_spacing is nominal!
#     exafs to K17
#     435  E XMU XMUR I0
#-------------
#   energy   i0   itrans  irefer
    8110  220369  177337  500822
    8130  219804  179089  509143
    8150  219251  180873  518440
    8170  218723  182703  528547
    8190  218285  184598  539254
    8210  217239  185967  549791
    8230  216696  187743  561107
    8250  215775  189190  572347
    8270  214793  190577  583058
    8290  213312  191467  592584
    8310  213105  193368  601387
    8311  213346  193700  603611
    8312  213182  193668  604899
    8313  212676  193306  605231
    8314  212446  193161  606179
    8315  212628  193425  607398
    8316  212740  193637  608289
    8317  212799  193797  608683
    8318  213031  194106  609826
    8319  212546  193773  608992
    8320  211963  193329  607965
    8321  210924  192438  605629
    8322  208833  190628  601188
    8323  206323  188435  596236
    8324  204384  186779  592371
    8325  203312  185852  589728
    8326  204552  187033  589804
    8327  207104  189350  591920
    8328  209832  191876  591053
    8329  212101  194016  583950
    8330  213463  195245  568864
    8331  213436  195110  543282
    8332  212999  194570  511201
    8333  212730  194255  472342
    8334  212461  193960  397737
    8335  212281  193817  333784
    8336  211970  193341  293369
    8337  211701  192462  266338
    8338  211324  191009  243698
    8339  211327  189212  220319
    8340  211134  186460  196507
    8341  211352  183109  172839
    8342  211386  178991  149607
    8343  211392  174492  126421
    8344  211387  169506  103582
    8345  211560  163894  82915.1
    8346  212114  157299  64991.1
    8347  211980  150192  51313.1
    8348  211733  144449  42343.1
    8349  211711  141375  37940.1
    8350  211666  140691  36607.1
    8351  211418  141382  36917.1
    8352  211414  143349  38062.1
    8353  210941  146127  39233.1
    8354  211149  149790  39810.1
    8355  211088  152868  39298.1
    8356  211175  155549  38113.1
    8357  211231  157605  36948.1
    8358  211345  159443  36476.1
    8359  211159  160562  36858.1
    8360  211425  161493  37936.1
    8361  210753  161134  38977.1
    8362  210911  160995  40106.1
    8363  210945  160626  41303.1
    8364  210870  160318  42583.1
    8365  211081  160545  44062.1
    8366  210796  160797  45357.1
    8367  210960  161577  46428.1
    8368  210974  162423  47206.1
    8369  210758  163113  47656.1
    8370  210882  164132  47939.1
    8371.78  210606  165498  47330.1
    8373.65  210678  166647  45346.1
    8375.58  210682  167135  42113.1
    8377.6  210585  166728  38446.1
    8379.69  210550  165639  35042.1
    8381.85  210696  164392  33141
    8384.1  210563  162829  33459
    8386.42  210525  161269  35929
    8388.81  210729  160095  39667.9
    8391.28  210731  159128  43304.9
    8393.83  210668  158458  45925.9
    8396.46  210973  158557  47041.9
    8399.16  211073  159229  47398.8
    8401.94  211151  160322  48309.8
    8404.78  211326  161545  48827.7
    8407.72  211244  162399  47870.7
    8410.72  211962  163664  46778.6
    8413.81  211924  164289  45442.5
    8416.96  212011  164993  43309.5
    8420.2  212234  165848  41197.4
    8423.51  212460  166800  38962.4
    8426.89  212697  167678  36368.3
    8430.36  212965  168357  34593.2
    8433.9  213293  168827  35077.1
    8437.51  213672  169251  37873
    8441.21  213794  169640  41861.9
    8444.97  214335  170590  46103.9
    8448.82  214739  171546  49523.8
    8452.74  215224  172523  54610.7
    8456.74  215338  172728  59561.6
    8460.81  215725  172611  60582.4
    8464.96  216066  172415  57652.4
    8469.19  216421  172770  53460.3
    8473.49  217129  173610  50823.1
    8477.87  217575  174146  51122
    8482.33  217749  174596  51725.9
    8486.85  218680  176026  47926.7
    8491.47  218909  177187  41874.6
    8496.15  219407  178788  39426.5
    8500.91  219983  180521  39601.4
    8505.75  220371  181879  42299.2
    8510.66  220846  182791  48816.1
    8515.65  221511  183397  59325.9
    8520.71  222229  184085  70618.8
    8525.86  222764  184951  74103.6
    8531.07  223335  185951  68446.5
    8536.37  224101  187036  61673.3
    8541.74  224560  187796  58098.2
    8547.19  225175  188775  58322
    8552.71  225742  190097  60227.8
    8558.31  226266  191660  63074.7
    8563.99  226672  192756  65018.5
    8569.74  227563  193806  61341.3
    8575.57  227886  194482  56672.1
    8581.47  228676  195754  55090.9
    8587.45  229413  197070  56793.8
    8593.51  230137  198306  62618.5
    8599.64  230884  199527  70702.4
    8605.85  231414  200653  76687.2
    8612.14  232285  202156  78623
    8618.5  232331  203210  78979.7
    8624.94  233394  205351  80115.5
    8631.45  234598  207400  80825.3
    8638.05  235715  209058  79890.1
    8644.71  236189  210172  78550.9
    8651.46  237141  211780  78294.7
    8658.28  238129  213319  78099.4
    8665.17  238899  214591  77194.2
    8672.15  239570  215769  77126
    8679.19  240392  217217  80215.7
    8686.32  241334  218909  85319.5
    8693.52  242055  220592  89623.3
    8700.81  243109  222694  91093
    8708.16  244002  224519  93303.8
    8715.58  245046  226377  98631.5
    8723.1  245873  228042  101336
    8730.68  246906  229941  102659
    8738.34  247898  231803  103478
    8746.08  248787  233555  103772
    8753.89  249577  235158  103842
    8761.77  250582  237025  104148
    8769.74  251548  238929  104725
    8777.78  252322  240777  105887
    8785.9  253325  242895  108925
    8794.09  254065  244710  113742
    8802.36  255043  246718  117788
    8810.7  255863  248509  119797
    8819.13  256811  250443  121640
    8827.63  253264  248027  122698
    8836.2  258091  253799  128701
    8844.85  260670  257376  132603
    8853.59  261459  259264  135733
    8862.38  262478  261462  138289
    8871.27  263271  263512  139605
    8880.22  264102  265556  140308
    8889.26  265134  267826  140732
    8898.37  266538  270504  142617
    8907.55  267049  272264  146825
    8916.81  268613  275074  152468
    8926.15  269428  277124  156509
    8935.57  269711  278639  159575
    8945.06  270743  280917  162806
    8954.62  272252  283725  166677
    8964.26  273168  285973  170381
    8973.98  274326  288547  174755
    8983.78  275332  290923  178544
    8993.65  276068  293022  181618
    9003.6  277413  295827  185005
    9013.63  278320  298200  187829
    9023.73  279129  300464  190695
    9033.9  279960  302766  194370
    9044.16  281260  305567  198734
    9054.49  282006  307786  203257
    9064.89  282546  309852  207794
    9075.38  283444  312274  212309
    9085.93  283315  313658  216415
    9096.57  286015  318178  222582
    9107.28  286749  320520  227411
    9118.07  288332  323858  233065
    9128.93  288207  325293  237323
    9139.87  289809  328641  242418
    9150.89  291182  331763  247002
    9161.98  292195  334572  251632
    9173.15  292950  336995  256594
    9184.4  293840  339658  262095
    9195.72  294789  342387  267350
    9207.11  295789  345223  272823
    9218.59  296543  347709  278630
    9230.13  297426  350514  284884
    9241.76  297129  351874  290001
    9253.47  299301  356195  297560
    9265.25  299152  357720  302909
    9277.1  301303  362069  310596
    9289.03  302087  364742  316790
    9301.04  302837  367449  322843
    9313.13  303611  370171  329001
    9325.29  304619  373200  335655
    9337.52  305694  376328  342686
    9349.84  306383  379021  349506
    9362.23  307268  381950  356763
    9374.69  308363  385192  364401
    9387.24  308446  387159  370943
    9399.86  309632  390527  379109
    9412.55  310509  393534  387068
    9425.32  311193  396296  395077
    9438.17  312036  399346  403433
    9451.09  312720  402147  411657