File: data/Ni/NiS_rt_01.xdi
# XDI/1.0
# Column.1: energy eV
# Column.2: i0
# Column.3: itrans
# Column.4: irefer
# Beamline.name: SSRL 4-1
# Detector.I0: N2 15cm
# Detector.I1: N2 30cm
# Detector.I2: N2 15cm
# Element.edge: K
# Element.symbol: Ni
# Mono.d_spacing: 3.13550
# Mono.name: Si(111)
# Mono.notes: unfocused, detuned 25%,counter clockwise
# Sample.formula: NiS
# Sample.name: NiS   nickel sulfide
# Sample.prep: powder, mixed 1:150 with B(OH)3 by wt
# Sample.reference: none
# Sample.temperature: room temperature
# Scan.start_time: 1997-01-17 13:11:19
# ///
#    Note: mono d_spacing is nominal!
#     exafs to K17
#     507  E XMU XMUR I0
#-------------
#   energy   i0   itrans  irefer
    8110  235472  111448  406519
    8130  234917  112977  413331
    8150  234244  114484  419698
    8170  233673  116057  425983
    8190  232898  117514  431770
    8210  232058  118958  437509
    8230  231055  120306  443101
    8250  230751  122003  448975
    8270  229467  123175  454146
    8290  227818  124086  458881
    8310  227593  125719  463810
    8311  227874  125955  465115
    8312  227373  125771  465593
    8313  227021  125638  466161
    8314  226964  125673  466766
    8315  226741  125628  467386
    8316  226837  125754  467780
    8317  227017  125918  468072
    8318  227075  126018  468297
    8319  227015  126039  468405
    8320  226591  125862  468282
    8321  225379  125214  467317
    8322  223218  124058  465921
    8323  220652  122738  464653
    8324  218027  121366  463922
    8325  216915  120718  463254
    8326  217547  120921  462699
    8327  220243  122260  462703
    8328  223228  123825  461989
    8329  225837  125173  458558
    8330  227083  125537  451561
    8331  227605  125050  433170
    8332  227189  123700  390372
    8333  226917  122289  329910
    8334  226543  120347  263619
    8335  226421  117972  213623
    8336  226318  114663  180502
    8337  225695  110302  157207
    8338  225602  106356  139577
    8339  225253  102741  123203
    8340  225585  100041  108644
    8341  225035  97305.6  94627.1
    8342  225191  95422.6  82381.1
    8343  225330  94109.6  70770.1
    8344  225416  93216.6  59299.1
    8345  225966  92826.6  49025.1
    8346  225966  92250.6  39665.1
    8347  225929  91585.6  32476.1
    8348  225966  90910.6  27458.1
    8349  225714  90208.6  24659.1
    8350  225465  89584.6  23495.1
    8351  225142  88953.6  23257.1
    8352  225366  88593.6  23533.1
    8353  225055  88031.6  23753.1
    8354  225111  87637.6  23606.1
    8355  225064  87267.6  22924.1
    8356  224888  86950.6  21845.1
    8357  224791  86808.6  20821.1
    8358  224674  86766.6  20144.1
    8359  224947  86944.6  20100.1
    8360  224687  87000.6  20485.1
    8361  224518  87166.6  21108.1
    8362  224922  87594.6  21838.1
    8363  224707  87845.6  22581.1
    8364  224609  88106.6  23372.1
    8365  224698  88437.6  24247.1
    8366  224716  88665.6  25023.1
    8367  224517  88759.6  25567.1
    8368  224745  88977.6  25971.1
    8369  224712  89065.6  26176.1
    8370  224532  89111.6  26229.1
    8371.43  224711  89406.5  26052.1
    8372.91  224864  89781.2  25383.1
    8374.43  224983  90212.7  24291
    8376  225249  90735  22993.9
    8377.63  225926  91467.1  21548.8
    8379.3  226299  92049  20169.7
    8381.03  227317  92851.7  19275.6
    8382.8  227898  93427.1  19008.5
    8384.62  228906  94071.4  19625.3
    8386.5  230028  94634.5  21072.1
    8388.42  231028  95019.4  22978.9
    8390.39  232194  95296.1  24998.7
    8392.4  233909  95678.5  26839.4
    8394.47  235217  95858.8  28085.2
    8396.58  236829  96131.9  28673.9
    8398.75  238480  96447.8  28843.6
    8400.97  240586  96988.4  29209.2
    8403.23  242463  97527.9  29673.9
    8405.55  244346  98157.2  29792.5
    8407.91  246846  99158.2  29460.1
    8410.32  249259  100247  29035.7
    8412.79  251939  101545  28757.3
    8415.3  254568  102861  28152.9
    8417.85  256694  104063  27240.4
    8420.46  260006  105883  26540.9
    8423.12  262616  107506  25707.4
    8425.83  265711  109377  24688.9
    8428.59  268808  111290  23735.3
    8431.4  272136  113291  23425.8
    8434.25  275674  115338  24196.2
    8437.16  279394  117389  26045.6
    8440.11  282748  119250  28523.9
    8443.11  286549  121334  31413.3
    8446.17  290732  123620  34138.6
    8449.26  294585  125697  36550
    8452.42  298778  127764  39940.3
    8455.62  302719  129511  43712.5
    8458.86  307431  131463  46305.8
    8462.16  311336  133016  46566
    8465.52  315443  134598  45033.2
    8468.91  320410  136535  42959.4
    8472.35  325665  138665  41342.6
    8475.85  330146  140627  41160.8
    8479.4  334895  142854  42424.9
    8482.99  339825  145281  43160
    8486.63  344884  147884  41088.1
    8490.33  350235  150721  37290.2
    8494.07  355472  153593  34936.3
    8497.86  361168  156778  34625.3
    8501.7  366695  160020  35489.3
    8505.59  372082  163309  37951.3
    8509.52  377873  166897  42852.3
    8513.51  383868  170553  50419.3
    8517.55  389375  173859  60220.2
    8521.64  395342  177183  69183.1
    8525.77  401454  180483  72631
    8529.95  408147  184008  69935.9
    8534.19  414390  187297  64990.7
    8538.47  420878  190664  61316.6
    8542.8  427635  194086  60052.4
    8547.19  434153  197215  61116.2
    8551.62  440774  200354  63279
    8556.1  447830  203783  66041.7
    8560.63  454463  207192  69495.5
    8565.21  462122  211274  71223.2
    8569.83  468457  214964  68468.9
    8574.51  475900  219300  65099.6
    8579.24  483182  223736  63763.3
    8584.01  490516  228285  64580.9
    8588.83  498142  233024  68259.5
    8593.71  505661  237704  75236.1
    8598.63  512819  242211  84182.7
    8603.6  520647  247053  92476.3
    8608.63  528928  252057  97802.8
    8613.7  535986  256454  99877.3
    8618.82  542562  260584  101471
    8623.98  550239  265274  103573
    8629.21  557323  269619  105510
    8634.47  569438  276405  107227
    8639.79  577680  281292  107068
    8645.16  586344  286383  107164
    8650.57  594584  291290  108009
    8656.03  603000  296386  109172
    8661.55  611167  301469  109848
    8667.11  620441  307157  110199
    8672.73  629882  313076  112166
    8678.39  638576  318724  117064
    8684.1  647414  324552  124260
    8689.85  655691  330278  131954
    8695.67  665166  336778  137586
    8701.52  674992  343517  140684
    8707.43  684439  350011  144973
    8713.39  694035  356453  153035
    8719.4  702763  362431  160402
    8725.45  713091  369256  164363
    8731.55  722520  375653  167861
    8737.7  732276  382256  170776
    8743.91  741966  388872  173169
    8750.16  751413  395400  175228
    8756.46  758726  400929  176776
    8762.82  766573  406849  178767
    8769.22  775346  413274  181224
    8775.66  784230  419823  184261
    8782.16  792521  426139  188911
    8788.71  802116  433193  196429
    8795.31  811492  440267  205600
    8801.95  821859  447912  213582
    8808.65  831251  455149  219042
    8815.39  840830  462519  223668
    8822.19  850289  469966  229237
    8829.03  843298  468279  232402
    8835.92  869952  485466  245798
    8842.86  884639  495840  254383
    8849.86  894992  504017  261866
    8856.89  904787  511898  269073
    8863.99  915317  520186  275225
    8871.12  925569  528428  279834
    8878.31  936896  537306  284037
    8885.55  946968  545585  287172
    8892.83  957915  554508  291054
    8900.17  968534  563351  297567
    8907.55  978514  571879  307942
    8914.98  990495  581629  320448
    8922.47  1.00159e+06  591037  331287
    8930  1.01157e+06  599782  340490
    8937.58  1.01976e+06  607593  348585
    8945.21  1.03237e+06  618068  357926
    8952.89  1.04483e+06  628514  367936
    8960.62  1.05491e+06  637628  377409
    8968.4  1.06688e+06  647989  388426
    8976.22  1.07725e+06  657484  399079
    8984.1  1.08818e+06  667323  409241
    8992.03  1.09945e+06  677512  418895
    9000  1.11044e+06  687607  428211
    9008.02  1.12225e+06  698297  437780
    9016.1  1.13367e+06  708816  446685
    9024.23  1.14447e+06  719105  456133
    9032.4  1.15395e+06  728691  466401
    9040.61  1.1658e+06  739796  478424
    9048.89  1.1773e+06  750768  490938
    9057.2  1.18751e+06  761035  504007
    9065.58  1.1974e+06  771401  517149
    9073.99  1.20908e+06  782634  530494
    9082.46  1.21868e+06  792873  543640
    9090.98  1.22847e+06  803232  557251
    9099.55  1.24377e+06  817342  573248
    9108.16  1.25625e+06  829623  588548
    9116.83  1.2699e+06  842841  604793
    9125.54  1.27742e+06  852151  618447
    9134.3  1.28959e+06  864605  633675
    9143.11  1.30216e+06  877508  648358
    9151.98  1.31425e+06  890235  662658
    9160.89  1.32593e+06  902708  677440
    9169.84  1.33785e+06  915527  693500
    9178.86  1.34814e+06  927274  710063
    9187.92  1.35882e+06  939355  726741
    9197.02  1.3697e+06  951747  743267
    9206.18  1.3797e+06  963567  759758
    9215.39  1.3916e+06  976849  778593
    9224.64  1.4027e+06  989710  797998
    9233.94  1.41491e+06  1.00341e+06  818391
    9243.3  1.41697e+06  1.0101e+06  833046
    9252.7  1.43726e+06  1.02971e+06  858588
    9262.15  1.4389e+06  1.03623e+06  873421
    9271.65  1.46195e+06  1.05804e+06  901241
    9281.2  1.47286e+06  1.07139e+06  922001
    9290.8  1.48386e+06  1.08494e+06  942909
    9300.45  1.49669e+06  1.09987e+06  964887
    9310.15  1.50749e+06  1.11344e+06  985654
    9319.9  1.51904e+06  1.12777e+06  1.00785e+06
    9329.69  1.53025e+06  1.14185e+06  1.03034e+06
    9339.54  1.53996e+06  1.15496e+06  1.05268e+06
    9349.43  1.55135e+06  1.16952e+06  1.07681e+06
    9359.38  1.56278e+06  1.1842e+06  1.10164e+06
    9369.37  1.5729e+06  1.19798e+06  1.12604e+06
    9379.41  1.58405e+06  1.21265e+06  1.15141e+06
    9389.5  1.59411e+06  1.22658e+06  1.17677e+06
    9399.65  1.60572e+06  1.24185e+06  1.20403e+06
    9409.83  1.61577e+06  1.25602e+06  1.23056e+06
    9420.08  1.62656e+06  1.27092e+06  1.25866e+06
    9430.37  1.6353e+06  1.28332e+06  1.28664e+06
    9440.7  1.64654e+06  1.29984e+06  1.31523e+06
    9451.09  1.6556e+06  1.31372e+06  1.34352e+06