File: data/Ni/NiS_rt_02.xdi
# XDI/1.0
# Column.1: energy eV
# Column.2: i0
# Column.3: itrans
# Column.4: irefer
# Beamline.name: SSRL 4-1
# Detector.I0: N2 15cm
# Detector.I1: N2 30cm
# Detector.I2: N2 15cm
# Element.edge: K
# Element.symbol: Ni
# Mono.d_spacing: 3.13550
# Mono.name: Si(111)
# Mono.notes: unfocused, detuned 25%,counter clockwise
# Sample.formula: NiS
# Sample.name: NiS   nickel sulfide
# Sample.prep: powder, mixed 1:150 with B(OH)3 by wt
# Sample.reference: none
# Sample.temperature: room temperature
# Scan.start_time: 1997-01-17 13:11:19
# ///
#    Note: mono d_spacing is nominal!
#     exafs to K17
#     507  E XMU XMUR I0
#-------------
#   energy   i0   itrans  irefer
    8110  230221  107793  392565
    8130  229930  109400  400236
    8150  229287  110874  407419
    8170  228543  112325  414281
    8190  227886  113810  420900
    8210  227214  115274  427267
    8230  226346  116654  433379
    8250  225337  117951  439225
    8270  224638  119398  445086
    8290  222987  120250  449973
    8310  223105  122016  455327
    8311  222881  121978  456299
    8312  222932  122089  457066
    8313  222505  121902  457660
    8314  222344  121888  458362
    8315  222348  121971  459035
    8316  222765  122267  459512
    8317  222640  122261  459743
    8318  222625  122320  460083
    8319  222466  122277  460178
    8320  221555  121829  459763
    8321  220846  121465  459008
    8322  218787  120383  457546
    8323  215881  118896  456032
    8324  213613  117717  454974
    8325  212469  117026  454123
    8326  213615  117512  453542
    8327  216190  118778  453947
    8328  219104  120295  452904
    8329  221780  121657  449029
    8330  222754  121778  439991
    8331  223127  121113  415567
    8332  222697  119758  367530
    8333  222518  118382  306862
    8334  222248  116465  244816
    8335  221912  113901  199663
    8336  221481  110285  169649
    8337  221387  106265  148878
    8338  221140  102468  132275
    8339  220981  99189.6  116830
    8340  220801  96432.6  102672
    8341  220804  94107.6  89626.1
    8342  220889  92341.6  77793.1
    8343  221187  91221.6  66569.1
    8344  221004  90333.6  55457.1
    8345  221247  89852.6  45588.1
    8346  221350  89322.6  36913.1
    8347  221644  88788.6  30412.1
    8348  221329  88012.6  25930.1
    8349  221290  87430.6  23611.1
    8350  220749  86709.6  22671.1
    8351  220924  86296.6  22636.1
    8352  220819  85830.6  22904.1
    8353  220620  85328.6  23076.1
    8354  220563  84906.6  22807.1
    8355  220587  84599.6  22041.1
    8356  220547  84365.6  20975.1
    8357  220464  84238.6  20018.1
    8358  220238  84176.6  19488.1
    8359  219942  84171.6  19519.1
    8360  220109  84400.6  20007.1
    8361  220261  84682.6  20669.1
    8362  220072  84891.6  21321.1
    8363  220183  85237.6  22082.1
    8364  220055  85497.6  22865.1
    8365  220065  85763.6  23688.1
    8366  220090  85971.6  24405.1
    8367  220341  86225.6  24943.1
    8368  220006  86202.6  25226.1
    8369  220034  86326.6  25413.1
    8370  219890  86390.6  25423.1
    8371.43  220356  86799.5  25220.1
    8372.91  220343  87111.2  24482.1
    8374.43  220613  87592.7  23396
    8376  220848  88090  22100.9
    8377.63  221376  88745.1  20697.9
    8379.3  221954  89403  19428.7
    8381.03  222441  89959.7  18588.6
    8382.8  223289  90624.1  18463.5
    8384.62  224174  91182.4  19147.3
    8386.5  225360  91761.5  20632.1
    8388.42  226297  92094.4  22495.9
    8390.39  227486  92372.1  24440.7
    8392.4  228859  92617.5  26152.4
    8394.47  230652  92981.8  27350.2
    8396.58  232193  93243.9  27852.9
    8398.75  233786  93538.8  28002.6
    8400.97  235829  94071.5  28382.2
    8403.23  237486  94528.9  28797.9
    8405.55  239747  95319.2  28916.5
    8407.91  241630  96068.2  28491.1
    8410.32  244229  97237.1  28127.7
    8412.79  246311  98275.8  27777.3
    8415.3  248879  99555.2  27168.9
    8417.85  251332  100879  26333.4
    8420.46  254299  102525  25630.9
    8423.12  256919  104144  24814.4
    8425.83  260110  106025  23832.9
    8428.59  263420  107996  22966.3
    8431.4  266346  109787  22702.8
    8434.25  269774  111754  23532.2
    8437.16  272577  113389  25313.6
    8440.11  276437  115438  27806
    8443.11  280131  117439  30608.3
    8446.17  283629  119391  33131.6
    8449.26  287511  121458  35524
    8452.42  291690  123463  38883.2
    8455.62  295576  125171  42506.5
    8458.86  299422  126749  44737.8
    8462.16  303999  128568  44940
    8465.52  308184  130172  43407.2
    8468.91  312584  131853  41323.4
    8472.35  317147  133688  39772.6
    8475.85  321889  135747  39769.8
    8479.4  326516  137889  41024.9
    8482.99  331573  140354  41640
    8486.63  336612  142932  39478.1
    8490.33  341161  145395  35776.2
    8494.07  346786  148402  33694.2
    8497.86  352551  151567  33486.3
    8501.7  357488  154498  34319.3
    8505.59  362724  157687  36790.3
    8509.52  368567  161200  41653.3
    8513.51  374224  164677  49060.3
    8517.55  380281  168143  58670.2
    8521.64  385762  171215  67119.1
    8525.77  391866  174472  70184
    8529.95  398312  177835  67375.9
    8534.19  404131  180899  62580.8
    8538.47  410493  184167  59110.6
    8542.8  416839  187333  57961.4
    8547.19  423168  190367  59050.2
    8551.62  429630  193385  61158
    8556.1  436763  196805  63888.8
    8560.63  443111  200056  67207.5
    8565.21  450153  203827  68693.2
    8569.83  457476  207910  66106.9
    8574.51  464140  211855  62826.6
    8579.24  470870  215981  61544.2
    8584.01  478102  220400  62416.9
    8588.83  485562  225005  66067.5
    8593.71  493181  229668  72923.1
    8598.63  500417  234163  81604.7
    8603.6  507946  238777  89531.3
    8608.63  516119  243675  94646.8
    8613.7  523494  248133  96700.3
    8618.82  529906  252136  98263.8
    8623.98  538001  256954  100416
    8629.21  544743  261077  102236
    8634.47  556234  267497  103808
    8639.79  563982  272086  103581
    8645.16  572161  276892  103650
    8650.57  580788  281936  104600
    8656.03  589454  287108  105806
    8661.55  597191  291896  106367
    8667.11  606016  297278  106673
    8672.73  614169  302494  108497
    8678.39  623212  308250  113429
    8684.1  632238  314089  120501
    8689.85  640242  319611  127895
    8695.67  649502  325905  133262
    8701.52  658960  332360  136214
    8707.43  667739  338440  140359
    8713.39  676835  344530  148124
    8719.4  685294  350295  155178
    8725.45  696194  357318  159174
    8731.55  705426  363504  162553
    8737.7  714952  369927  165378
    8743.91  723596  375923  167506
    8750.16  734696  383245  169956
    8756.46  742935  389188  171730
    8762.82  753213  396321  174280
    8769.22  763332  403406  177043
    8775.66  772782  410181  180206
    8782.16  782983  417460  185260
    8788.71  792509  424423  192648
    8795.31  802834  431915  201919
    8801.95  812038  438848  209464
    8808.65  821923  446272  214951
    8815.39  832300  454014  219768
    8822.19  841126  461073  225174
    8829.03  834912  459832  228558
    8835.92  860763  476422  241524
    8842.86  876447  487299  250273
    8849.86  886900  495457  257718
    8856.89  896774  503289  264810
    8863.99  906200  510931  270568
    8871.12  917531  519665  275397
    8878.31  927771  527866  279272
    8885.55  937979  536170  282377
    8892.83  949190  545148  286362
    8900.17  960564  554341  293148
    8907.55  970689  562896  303530
    8914.98  980582  571384  315173
    8922.47  991922  580860  325941
    8930  1.00362e+06  590566  335607
    8937.58  1.0118e+06  598282  343565
    8945.21  1.02391e+06  608389  352663
    8952.89  1.03586e+06  618463  362406
    8960.62  1.04683e+06  627953  372046
    8968.4  1.05793e+06  637750  382670
    8976.22  1.06904e+06  647560  393448
    8984.1  1.0807e+06  657817  403827
    8992.03  1.09088e+06  667275  412941
    9000  1.1019e+06  677298  422186
    9008.02  1.11248e+06  687185  431209
    9016.1  1.12436e+06  697932  440218
    9024.23  1.13508e+06  708096  449585
    9032.4  1.14613e+06  718523  460331
    9040.61  1.15774e+06  729400  472156
    9048.89  1.16816e+06  739660  484202
    9057.2  1.17903e+06  750189  497334
    9065.58  1.18661e+06  759002  509342
    9073.99  1.20117e+06  771958  523788
    9082.46  1.20823e+06  780498  535637
    9090.98  1.21881e+06  791242  549417
    9099.55  1.23342e+06  804911  564997
    9108.16  1.24575e+06  817059  580209
    9116.83  1.25886e+06  829852  596082
    9125.54  1.2655e+06  838531  609155
    9134.3  1.27835e+06  851318  624534
    9143.11  1.29046e+06  863832  638868
    9151.98  1.30197e+06  876094  652740
    9160.89  1.31184e+06  887230  666455
    9169.84  1.32299e+06  899393  681927
    9178.86  1.33423e+06  911674  698800
    9187.92  1.34488e+06  923708  715287
    9197.02  1.35605e+06  936213  731833
    9206.18  1.36647e+06  948221  748387
    9215.39  1.37742e+06  960700  766407
    9224.64  1.38817e+06  973275  785455
    9233.94  1.3982e+06  985327  804347
    9243.3  1.40039e+06  992059  818932
    9252.7  1.42022e+06  1.01127e+06  843932
    9262.15  1.42137e+06  1.01733e+06  858213
    9271.65  1.44346e+06  1.03836e+06  885229
    9281.2  1.45393e+06  1.05135e+06  905547
    9290.8  1.46343e+06  1.06369e+06  925284
    9300.45  1.47358e+06  1.07664e+06  945212
    9310.15  1.48556e+06  1.09098e+06  966603
    9319.9  1.49574e+06  1.10414e+06  987607
    9329.69  1.50452e+06  1.11641e+06  1.0083e+06
    9339.54  1.51624e+06  1.13088e+06  1.03157e+06
    9349.43  1.52697e+06  1.14481e+06  1.05503e+06
    9359.38  1.53848e+06  1.15956e+06  1.07964e+06
    9369.37  1.54745e+06  1.1724e+06  1.10308e+06
    9379.41  1.55973e+06  1.18783e+06  1.12895e+06
    9389.5  1.5689e+06  1.20104e+06  1.15345e+06
    9399.65  1.57857e+06  1.21481e+06  1.17896e+06
    9409.83  1.59017e+06  1.23012e+06  1.20642e+06
    9420.08  1.59892e+06  1.24341e+06  1.23264e+06
    9430.37  1.61042e+06  1.25818e+06  1.2615e+06
    9440.7  1.62029e+06  1.2732e+06  1.28951e+06
    9451.09  1.6316e+06  1.28874e+06  1.31915e+06