File: data/Ni/NiS_rt_03.xdi
# XDI/1.0
# Column.1: energy eV
# Column.2: i0
# Column.3: itrans
# Column.4: irefer
# Beamline.name: SSRL 4-1
# Detector.I0: N2 15cm
# Detector.I1: N2 30cm
# Detector.I2: N2 15cm
# Element.edge: K
# Element.symbol: Ni
# Mono.d_spacing: 3.13550
# Mono.name: Si(111)
# Mono.notes: unfocused, detuned 25%,counter clockwise
# Sample.formula: NiS
# Sample.name: NiS   nickel sulfide
# Sample.prep: powder, mixed 1:150 with B(OH)3 by wt
# Sample.reference: none
# Sample.temperature: room temperature
# Scan.start_time: 1997-01-17 13:11:19
# ///
#    Note: mono d_spacing is nominal!
#     exafs to K17
#     507  E XMU XMUR I0
#-------------
#   energy   i0   itrans  irefer
    8110  227188  105610  387011
    8130  226753  107133  394935
    8150  226242  108656  402445
    8170  225622  110111  409706
    8190  224718  111459  416569
    8210  223783  112777  423070
    8230  223260  114294  429516
    8250  222304  115596  435490
    8270  221438  116919  441222
    8290  219992  117878  446282
    8310  219951  119524  451636
    8311  219721  119503  452557
    8312  219623  119508  453315
    8313  219468  119486  453928
    8314  219011  119322  454486
    8315  218845  119302  455126
    8316  219099  119499  455456
    8317  219296  119681  455904
    8318  219291  119743  456216
    8319  218937  119607  456225
    8320  218787  119557  455992
    8321  217440  118844  454964
    8322  215136  117643  453292
    8323  212623  116391  451640
    8324  210297  115191  450387
    8325  209456  114672  449190
    8326  210441  115055  448624
    8327  213232  116431  449169
    8328  216173  117959  448055
    8329  218598  119176  444236
    8330  219659  119355  433874
    8331  219817  118581  407814
    8332  219760  117463  360101
    8333  219343  115981  299399
    8334  219073  114065  238366
    8335  218706  111509  194541
    8336  218213  107880  165396
    8337  218122  103930  145260
    8338  217807  100209  129092
    8339  217587  96972.6  113825
    8340  217300  94241.6  99953.1
    8341  217756  92190.6  87498.1
    8342  217543  90351.6  75747.1
    8343  217935  89310.6  64770.1
    8344  217902  88521.6  53959.1
    8345  218051  88028.6  44324.1
    8346  218095  87476.6  35866.1
    8347  218024  86824.6  29534.1
    8348  218294  86285.6  25330.1
    8349  217751  85521.6  23063.1
    8350  217795  85049.6  22254.1
    8351  217488  84465.6  22190.1
    8352  217453  84038.6  22472.1
    8353  217100  83491.6  22604.1
    8354  217298  83184.6  22357.1
    8355  217183  82832.6  21567.1
    8356  217175  82625.6  20519.1
    8357  216989  82465.6  19584.1
    8358  217423  82653.6  19148.1
    8359  216946  82584.6  19183.1
    8360  217016  82786.6  19671.1
    8361  217126  83052.6  20315.1
    8362  217084  83303.6  20973.1
    8363  217043  83599.6  21711.1
    8364  217132  83929.6  22502.1
    8365  217097  84163.6  23305.1
    8366  217012  84332.6  23992.1
    8367  217243  84566.6  24506.1
    8368  217038  84607.6  24794.1
    8369  216980  84686.6  24955.1
    8370  216855  84767.6  24974.1
    8371.43  216712  84935.5  24690.1
    8372.91  217000  85354.2  23989.1
    8374.43  217032  85740.7  22888
    8376  217641  86383  21665.9
    8377.63  217928  86930.1  20267.9
    8379.3  218658  87648  19033.7
    8381.03  219204  88213.7  18225.6
    8382.8  220183  88919.1  18135.5
    8384.62  220864  89402.4  18812.3
    8386.5  222059  89956.5  20287.1
    8388.42  223069  90311.4  22128.9
    8390.39  224109  90541.1  24017.7
    8392.4  225620  90840.6  25690.4
    8394.47  226816  90978.8  26792.1
    8396.58  228525  91302.9  27290.9
    8398.75  229991  91567.8  27429.6
    8400.97  231936  92059.4  27798.2
    8403.23  233858  92619.9  28236.9
    8405.55  236043  93388.2  28332.5
    8407.91  238119  94212.2  27941.1
    8410.32  240687  95354.1  27590.7
    8412.79  242453  96268.8  27212.3
    8415.3  244946  97524.2  26601.9
    8417.85  248072  99106.5  25872.4
    8420.46  250646  100575  25136.9
    8423.12  253308  102197  24347.4
    8425.83  256248  103958  23367.9
    8428.59  259202  105757  22484.3
    8431.4  262340  107645  22270.8
    8434.25  265339  109402  23069.2
    8437.16  268925  111351  24897.6
    8440.11  272557  113281  27338.9
    8443.11  275774  115088  30045.3
    8446.17  279705  117204  32573.6
    8449.26  283277  119120  34894
    8452.42  287236  121029  38177.3
    8455.62  291177  122748  41736.5
    8458.86  295131  124347  43920.8
    8462.16  299491  126075  44067
    8465.52  303927  127790  42595.2
    8468.91  308176  129411  40549.4
    8472.35  312286  131059  38986.6
    8475.85  317017  133105  39014.7
    8479.4  321679  135267  40275.9
    8482.99  326360  137562  40820
    8486.63  331320  140083  38675.1
    8490.33  336252  142687  35093.2
    8494.07  341742  145623  33068.2
    8497.86  347035  148560  32832.3
    8501.7  352230  151591  33710.3
    8505.59  357486  154743  36157.3
    8509.52  362617  157969  40886.3
    8513.51  368157  161329  48162.2
    8517.55  374719  165009  57693.2
    8521.64  379854  167907  65907.1
    8525.77  385767  171063  68836
    8529.95  391729  174186  65954.9
    8534.19  397553  177224  61270.8
    8538.47  403999  180524  57936.6
    8542.8  409938  183501  56783.4
    8547.19  416122  186452  57875.2
    8551.62  423206  189737  60046
    8556.1  429272  192670  62604.7
    8560.63  436069  196135  65945.5
    8565.21  442938  199780  67328.2
    8569.83  449864  203661  64727.9
    8574.51  456924  207782  61607.6
    8579.24  463866  211974  60420.2
    8584.01  471287  216470  61350.9
    8588.83  478564  220954  64969.5
    8593.71  485797  225431  71707.1
    8598.63  493467  230069  80329.7
    8603.6  501217  234771  88151.3
    8608.63  508623  239266  93003.8
    8613.7  516207  243809  95067.3
    8618.82  522912  247927  96678.8
    8623.98  531765  253085  98986.3
    8629.21  538187  257034  100719
    8634.47  549405  263299  102227
    8639.79  557556  268047  102112
    8645.16  565627  272792  102185
    8650.57  574430  277900  103184
    8656.03  582554  282804  104288
    8661.55  591243  288017  105043
    8667.11  600202  293470  105385
    8672.73  608782  298888  107299
    8678.39  617772  304588  112196
    8684.1  626079  310071  119078
    8689.85  634715  315860  126522
    8695.67  644528  322407  131940
    8701.52  653934  328813  134865
    8707.43  663280  335152  139127
    8713.39  672642  341374  146917
    8719.4  681172  347126  153902
    8725.45  690893  353522  157602
    8731.55  700743  360010  161127
    8737.7  709937  366243  163876
    8743.91  719110  372493  166104
    8750.16  728736  379038  168226
    8756.46  738255  385628  170303
    8762.82  747483  392160  172603
    8769.22  757560  399204  175356
    8775.66  766776  405832  178448
    8782.16  776507  412838  183355
    8788.71  786922  420229  190934
    8795.31  795021  426536  199576
    8801.95  804724  433728  207184
    8808.65  813461  440490  212339
    8815.39  823226  447942  216996
    8822.19  832269  455088  222427
    8829.03  826184  453898  225799
    8835.92  851130  469946  238453
    8842.86  866838  480811  247150
    8849.86  875378  487884  253992
    8856.89  884929  495487  260923
    8863.99  895489  503740  266965
    8871.12  905591  511726  271414
    8878.31  916478  520263  275452
    8885.55  926319  528311  278475
    8892.83  936759  536882  282244
    8900.17  947301  545523  288732
    8907.55  957742  554165  299115
    8914.98  967819  562777  310731
    8922.47  978243  571649  321056
    8930  989103  580852  330383
    8937.58  998730  589377  338762
    8945.21  1.00936e+06  598582  347300
    8952.89  1.02113e+06  608490  356876
    8960.62  1.03141e+06  617629  366241
    8968.4  1.0415e+06  626731  376404
    8976.22  1.05303e+06  636802  387289
    8984.1  1.06359e+06  646355  397149
    8992.03  1.07515e+06  656576  406681
    9000  1.08487e+06  665791  415355
    9008.02  1.09657e+06  676272  424741
    9016.1  1.10727e+06  686256  433196
    9024.23  1.11769e+06  696181  442355
    9032.4  1.12793e+06  706093  452771
    9040.61  1.13826e+06  716155  463964
    9048.89  1.14884e+06  726419  475906
    9057.2  1.16058e+06  737540  489358
    9065.58  1.16762e+06  745965  501009
    9073.99  1.18002e+06  757498  514425
    9082.46  1.18773e+06  766413  526443
    9090.98  1.19747e+06  776624  539757
    9099.55  1.21079e+06  789367  554602
    9108.16  1.2219e+06  800599  568954
    9116.83  1.23578e+06  813811  585018
    9125.54  1.24155e+06  821904  597538
    9134.3  1.25512e+06  835129  613200
    9143.11  1.26621e+06  846883  626801
    9151.98  1.27647e+06  858135  639848
    9160.89  1.28589e+06  868812  653333
    9169.84  1.2951e+06  879688  667478
    9178.86  1.30615e+06  891842  684059
    9187.92  1.31657e+06  903612  700218
    9197.02  1.32776e+06  916098  716586
    9206.18  1.33755e+06  927622  732572
    9215.39  1.34859e+06  940094  750473
    9224.64  1.36317e+06  955217  771323
    9233.94  1.37689e+06  969836  792203
    9243.3  1.37995e+06  977151  807040
    9252.7  1.40332e+06  998782  834051
    9262.15  1.40643e+06  1.00631e+06  849426
    9271.65  1.42691e+06  1.0262e+06  875341
    9281.2  1.43806e+06  1.03958e+06  895913
    9290.8  1.44782e+06  1.05209e+06  915698
    9300.45  1.45755e+06  1.06467e+06  935275
    9310.15  1.46864e+06  1.07832e+06  955922
    9319.9  1.47902e+06  1.0916e+06  976932
    9329.69  1.48982e+06  1.1053e+06  998887
    9339.54  1.49922e+06  1.11812e+06  1.02051e+06
    9349.43  1.51126e+06  1.13291e+06  1.0447e+06
    9359.38  1.5209e+06  1.14621e+06  1.06794e+06
    9369.37  1.53337e+06  1.16164e+06  1.09358e+06
    9379.41  1.54439e+06  1.17615e+06  1.11849e+06
    9389.5  1.55322e+06  1.18919e+06  1.14271e+06
    9399.65  1.56385e+06  1.20355e+06  1.16882e+06
    9409.83  1.57381e+06  1.21764e+06  1.195e+06
    9420.08  1.58484e+06  1.23261e+06  1.22285e+06
    9430.37  1.59554e+06  1.24748e+06  1.25079e+06
    9440.7  1.60598e+06  1.26217e+06  1.27926e+06
    9451.09  1.61496e+06  1.27597e+06  1.3071e+06