File: data/Sr/Sr_slawsonite_15K_03.xdi
# XDI/1.0  SSRL EXAFS Data Collector 1.1 AD.RGN
# Column.1: energy eV
# Column.2: mutrans
# Column.3: murefer
# Column.4: i0
# Beamline.name: SSRL 4-3 (?)
# Element.edge: K
# Element.symbol: Sr
# Mono.d_spacing: 1.92009
# Mono.name: Si(220)
# Mono.notes: (?) unfocussed, detuned 50%, clockwise at E=16800eV
# Sample.formula: SrAl2Si2O8
# Sample.name: slawsonite
# Sample.prep: powder mixed with B2O3
# Sample.reference: unknown
# Sample.temperature: 15K
# Scan.start_time: 1997-03-18 12:50:19
# ///
#    Note: mono d_spacing is nominal!
#--------------------------------------------
# energy     mutrans     murefer      i0
  15700.043  0.267319  -1.01336   33278.602
  15719.954  0.26316  -1.0178   32799.602
  15739.919  0.259058  -1.02102     32105.6
  15759.935  0.255354  -1.02585     31630.6
  15780.002  0.251689  -1.02971     30776.6
  15799.958  0.2479  -1.03366     30133.6
  15819.965  0.244243  -1.03752     29437.6
  15840.023  0.240813  -1.04187     28896.6
  15859.968  0.237226  -1.04588     28165.6
  15879.964  0.233917  -1.04999     27492.6
  15900.011  0.230619  -1.05426     26899.6
  15919.941  0.227116  -1.05842     26259.6
  15939.925  0.223939  -1.06258     25604.6
  15959.959  0.220534  -1.06683     24936.6
  15980.045  0.21727  -1.07045     24385.6
  16000.012  0.213921  -1.07472     23761.6
  16020.030  0.210928  -1.07885     23180.6
  16039.929   0.2081696    -1.08237     22695.6
  16060.049  0.206134  -1.08628     22043.6
  16080.051  0.206565  -1.08804     21573.6
  16082.448  0.206782  -1.08757     21499.6
  16084.846  0.207416  -1.08775     21520.6
  16087.415  0.209204  -1.08768     21418.6
  16089.813  0.2113  -1.08734     21269.6
  16092.214  0.214333  -1.08644     21232.6
  16094.785  0.221342  -1.08454     21158.6
  16097.187  0.236236  -1.08073     21169.6
  16099.588  0.271486  -1.073     20921.6
  16102.162  0.341873  -1.05306     20911.6
  16104.565   0.4251016  -1.01425     20956.6
  16106.970  0.50547 -0.959274     20931.6
  16109.547  0.535117  -0.9137708     20789.6
  16111.952   0.5151323  -0.8881022     20694.6
  16114.359  0.488233 -0.891718     20557.6
  16116.767  0.466665 -0.910367     20584.6
  16119.345  0.453796 -0.93428     20516.6
  16121.754   0.4430003 -0.950478     20453.6
  16124.163  0.432114 -0.956687     20230.6
  16126.746  0.423169 -0.958999     20230.6
  16129.157  0.418974 -0.959072     20159.6
  16131.568  0.422045 -0.958316     20038.6
  16133.980  0.427047 -0.954703     20022.6
  16136.568  0.434265 -0.949933     20113.6
  16138.981  0.443559 -0.94654     19958.6
  16141.396   0.4530672 -0.942185     19919.6
  16143.812  0.461431 -0.938097     19842.6
  16146.400  0.465582 -0.935415     19598.6
  16148.817  0.463349 -0.934442     19745.6
  16151.062  0.458791 -0.935646   39063.184
  16153.481  0.452702 -0.937751   39211.063
  16155.727  0.448151 -0.940458   38764.816
  16158.146  0.444461 -0.943821   38652.449
  16160.740  0.440358  -0.9478244   38618.957
  16163.334  0.437115 -0.951258   38356.344
  16166.102  0.433619  -0.9542286   38154.605
  16168.871  0.429458 -0.957035   38327.746
  16171.642  0.423759 -0.958914   38237.762
  16174.586  0.418886 -0.959271   37979.656
  16177.705  0.417268 -0.958519    38234.43
  16180.825  0.419764 -0.956776   38709.078
  16183.946  0.425769 -0.955905   38862.605
  16187.242  0.431834 -0.95521   39128.008
  16190.539  0.437235 -0.955329   39192.289
  16194.011  0.438441 -0.955654   39398.445
  16197.485  0.437575 -0.956151    39290.48
  16201.134  0.435797 -0.956321   39321.391
  16204.785  0.432095 -0.956621    39219.18
  16208.612    0.427639 -0.957771   39309.848
  16212.439  0.423114 -0.959531   39336.391
  16216.271  0.418854 -0.962024   39537.809
  16220.276  0.415268 -0.964588   39639.109
  16224.459  0.413 -0.966367   39587.281
  16228.644   0.4132081 -0.967433   39772.336
  16232.832  0.415377 -0.968599   40049.266
  16237.194  0.415966 -0.9691    40051.07
  16241.561  0.414607 -0.969196   40254.754
  16246.104  0.414464 -0.969818   40293.313
  16250.650  0.414007 -0.969657   40350.754
  16255.199  0.413032 -0.969966   40866.066
  16259.925  0.412649 -0.970932   40945.258
  16264.830  0.413278 -0.971955   41079.328
  16269.737  0.413088  -0.9727305   41214.273
  16274.646  0.410183 -0.973151   41511.098
  16279.736  0.408669 -0.974073   41547.801
  16284.828  0.408044 -0.974987   41950.379
  16290.099  0.407609 -0.976398   42182.832
  16295.373  0.405246 -0.977702   42267.164
  16300.827  0.402032 -0.979126   42525.375
  16306.286  0.400483 -0.980635   42764.461
  16311.748  0.398154 -0.981661   42830.426
  16317.388  0.396162 -0.982563   43207.266
  16323.212  0.397148 -0.983547   43500.984
  16328.861   0.3989138 -0.983817   43757.578
  16334.867  0.39944 -0.984639   44151.051
  16340.703  0.399112 -0.985704   44065.402
  16346.719   0.3971517 -0.986608   44355.629
  16352.918  0.395251 -0.988405   44912.734
  16359.119  0.392505 -0.990024   44787.715
  16365.326  0.389308 -0.991116    45110.57
  16371.717  0.387006 -0.991966   45153.309
  16378.111  0.38634 -0.992892   45417.922
  16384.689  0.385463 -0.994194    45841.41
  16391.271  0.384732 -0.995548   46167.777
  16398.039  0.384479 -0.997223    46542.02
  16404.813  0.383134 -0.998607   46643.145
  16411.590  0.38179 -0.999544   46852.141
  16418.553  0.379986  -1.00001   46847.016
  16425.521  0.378577  -1.0013    47201.77
  16432.676  0.376595  -1.00243   47322.398
  16439.834  0.374809  -1.00352   47484.906
  16447.180  0.37445  -1.00496   48101.293
  16454.354  0.373403  -1.00634   48234.551
  16461.891  0.371785  -1.00781   48368.691
  16469.438  0.370134   -1.008878   48798.707
  16476.988  0.369413  -1.01046   48676.602
  16484.549  0.367726  -1.01181   49238.371
  16492.295  0.365005  -1.01299    49261.02
  16500.229  0.363427  -1.01429   49786.543
  16508.172  0.362336   -1.015971   49940.945
  16516.121  0.361064   -1.017217   50160.223
  16524.080   0.3595063  -1.01868   50371.379
  16532.227  0.357835  -1.01982    50624.41
  16540.563  0.356749  -1.02156    50890.32
  16548.906  0.355881  -1.02329   51105.109
  16557.262   0.3540906  -1.02442   51435.773
  16565.807  0.351976    -1.02629   51698.316
  16574.357  0.349972  -1.02712   52119.734
  16582.922  0.348038  -1.02863   51843.031
  16591.674  0.345916  -1.03012   52275.203
  16600.438  0.344741  -1.03166   52471.254
  16609.393  0.342868  -1.03283   52655.184
  16618.357  0.341171  -1.03454   52904.988
  16627.332  0.339618  -1.03662   53176.668
  16636.502  0.337949  -1.03816    53407.23
  16645.682  0.336078  -1.0395   53614.664
  16655.053  0.33534  -1.04141    53632.98
  16664.254  0.333116  -1.0425   53927.168
  16673.832  0.331849  -1.04469   54097.238
  16683.420  0.329925  -1.04621   54431.184
  16693.023  0.327945  -1.04809   54505.004
  16702.635  0.325237  -1.04922   54838.703
  16712.445  0.323886  -1.05094   54805.281
  16722.264  0.321523  -1.05285   55092.734
  16732.281  0.320637   -1.054406   55190.066
  16742.313  0.318381  -1.05605   55079.273
  16752.355  0.316475  -1.05759   55351.359
  16762.596  0.315088   -1.059195    55297.32
  16772.852  0.312891  -1.06095    55324.16
  16783.117  0.310838  -1.06294   55513.875
  16793.584  0.308642  -1.06417   55826.469
  16804.063  0.307668  -1.06592   55990.941
  16814.744  0.306349   -1.068363   56017.289
  16825.438  0.304472  -1.06982   56067.516
  16836.146  0.303043  -1.07161   56273.617
  16847.059  0.30075  -1.07358   56343.598
  16857.982  0.298564  -1.07481   56146.453
  16868.922  0.295922   -1.076328   56498.188
  16880.064  0.29436  -1.07846   56292.801
  16891.223  0.292563  -1.08016   56290.289
  16902.396   0.2914379  -1.08176   56461.652
  16913.773  0.290156   -1.084165   56525.895
  16925.166  0.287319  -1.08599   56631.016
  16936.576  0.283759  -1.08732   56994.012
  16948.191  0.281496  -1.08912   56632.887
  16959.822  0.279863  -1.091   56731.637
  16971.471  0.278638  -1.09307   56924.266
  16983.326  0.276577   -1.094329   57094.773
  16995.197  0.274737   -1.096632   57016.156
  17001.332  0.273438  -1.09785   57028.801