File: data/Sr/Sr_slawsonite_rt_01.xdi
# XDI/1.0  SSRL EXAFS Data Collector 1.1 AD.RGN
# Column.1: energy eV
# Column.2: mutrans
# Column.3: i0
# Beamline.name: SSRL 4-3 (?)
# Element.edge: K
# Element.symbol: Sr
# Mono.d_spacing: 1.92009
# Mono.name: Si(220)
# Mono.notes: (?) unfocussed, detuned 75%, clockwise at E=16300eV
# Sample.formula: SrAl2(SiO4)2
# Sample.name: slawsonite
# Sample.prep: powder mixed with B2O3
# Sample.reference: none
# Sample.temperature: room temperature
# Scan.start_time: 1997-03-18 19:29:57
# ///
#    Note: mono d_spacing is nominal!
#--------------------------------------------
# energy     mutrans      i0
  15700.043  0.167002   70449.602
  15719.954  0.165966   69905.602
  15739.919  0.17652   68498.602
  15759.935  0.163862   68765.602
  15780.002  0.162854   68112.602
  15799.958   0.1648769   67790.602
  15819.965  0.161789   66925.602
  15840.023  0.164961   66647.602
  15859.968   0.1644616   65989.602
  15879.964  0.164698   65421.602
  15900.011  0.163567   64684.602
  15919.941  0.164034   64184.602
  15939.925  0.165154   63685.602
  15959.959  0.164506   63006.602
  15980.045  0.163168   62246.602
  16000.012  0.162764   61649.602
  16020.030   0.1602267   60846.602
  16039.929  0.160963   60159.602
  16060.049  0.162069   59620.602
  16080.051  0.164635   58863.602
  16082.448  0.165925   58828.602
  16084.846  0.165736   58621.602
  16087.415  0.167828   58590.602
  16089.813  0.170082   58478.602
  16092.214  0.174163   58297.602
  16094.785  0.181014   58228.602
  16097.187    0.195563   58083.602
  16099.588  0.229095   57965.602
  16102.162  0.29817   57722.602
  16104.565  0.389612   57689.602
  16106.970  0.486999   57614.602
  16109.547  0.545719   57412.602
  16111.952  0.538938   57276.602
  16114.359  0.506423   57239.602
  16116.767  0.47599   57120.602
  16119.345  0.459937   56958.602
  16121.754  0.447089   56761.602
  16124.163  0.437648   56728.602
  16126.746  0.427568   56524.602
  16129.157   0.4225348   56257.602
  16131.568  0.424681   56147.602
  16133.980  0.430372   55860.602
  16136.568  0.437441   55756.602
  16138.981  0.446908   55883.602
  16141.396   0.4559392   55781.602
  16143.812  0.463945   55563.602
  16146.400  0.468223   55370.602
  16148.817  0.468189   55226.602
  16151.062  0.465569   110602.19
  16153.481  0.459394   110171.09
  16155.727  0.453412   109736.91
  16158.146   0.4517454   109559.62
  16160.740  0.448117   109080.24
  16163.334  0.444901   108628.77
  16166.102  0.442585    108402.2
  16168.871  0.44002   108299.54
  16171.642  0.435525   108123.79
  16174.586  0.430014   107955.94
  16177.705   0.4275132   108190.99
  16180.825  0.42948   108529.95
  16183.946  0.434448   109443.82
  16187.242  0.439063   110453.59
  16190.539  0.442613   111303.27
  16194.011  0.445107   111743.85
  16197.485  0.444681   111866.34
  16201.134  0.443307   112201.73
  16204.785  0.440636   112396.03
  16208.612  0.437072   112825.23
  16212.439  0.433528   113395.34
  16216.271  0.429766   113781.36
  16220.276  0.427153   114370.28
  16224.459  0.424862   114885.11
  16228.644  0.424389   115210.84
  16232.832  0.424883   115950.48
  16237.194  0.425704   116666.02
  16241.561  0.425437   117294.47
  16246.104  0.424857   118065.82
  16250.650  0.424698   118730.08
  16255.199  0.423459   119480.24
  16259.925  0.423632   120303.31
  16264.830  0.423994   121042.29
  16269.737   0.4244968   121982.17
  16274.646  0.423043   122573.96
  16279.736  0.420969   123440.66
  16284.828  0.420334   124375.25
  16290.099  0.419436   125293.76
  16295.373  0.417828   126093.16
  16300.827  0.415867   127208.48
  16306.286   0.4142314    128213.7
  16311.748  0.41266   129097.82
  16317.388  0.412095   130166.85
  16323.212  0.411846    131192.8
  16328.861  0.412504   132209.64
  16334.867  0.412047   133071.37
  16340.703  0.411364   134291.03
  16346.719  0.410296   135468.59
  16352.918  0.408877   136267.06
  16359.119  0.40682   137346.42
  16365.326  0.404971    138468.7
  16371.717  0.403155   139512.87
  16378.111  0.402081   140629.97
  16384.689   0.4015195   141683.95
  16391.271  0.400695   142919.86
  16398.039  0.399972   143842.66
  16404.813  0.398704   145142.36
  16411.590  0.397631   146393.98
  16418.553   0.3963339    147426.5
  16425.521  0.394909   148528.92
  16432.676  0.39372   149707.25
  16439.834   0.3922423   150834.48
  16447.180  0.391205   151996.62
  16454.354  0.390382   153148.67
  16461.891  0.389086   154225.62
  16469.438  0.3879   155086.48
  16476.988  0.386641   156354.25
  16484.549  0.385312   157486.92
  16492.295  0.38382   158550.48
  16500.229  0.382344   159512.97
  16508.172  0.380841   160649.36
  16516.121  0.37939   161845.64
  16524.080  0.37803   162738.84
  16532.227  0.376816   163926.94
  16540.563  0.375565   164700.95
  16548.906  0.374293   165974.86
  16557.262  0.37301   167289.69
  16565.807  0.371071   168236.41
  16574.357  0.369695   169116.03
  16582.922  0.367813   170500.56
  16591.674  0.366344   171129.02
  16600.438  0.364825   172138.36
  16609.393  0.363274   173119.61
  16618.357  0.361649   174131.77
  16627.332  0.359926   175192.83
  16636.502  0.358358    176402.8
  16645.682  0.356698   177250.66
  16655.053  0.355282   177600.44
  16664.254  0.353465   178451.12
  16673.832  0.352192   178776.72
  16683.420  0.350492    179588.2
  16693.023  0.348429   180646.61
  16702.635  0.346686   181235.92
  16712.445  0.345176   181924.12
  16722.264  0.343039   182671.25
  16732.281  0.341504   183005.27
  16742.313  0.339421    183623.2
  16752.355  0.337658   184120.03
  16762.596  0.335854   184575.77
  16772.852  0.33429   184552.41
  16783.117   0.3326482   184463.97
  16793.584  0.330837   185521.42
  16804.063   0.3288348   186035.78
  16814.744  0.327056   186382.05
  16825.438   0.3252129   186941.22
  16836.146  0.32348    187269.3
  16847.059  0.321576   187035.28
  16857.982  0.319395   187663.17
  16868.922  0.317688   187161.97
  16880.064  0.315821   187724.66
  16891.223  0.313596   187820.27
  16902.396  0.312135   187747.78
  16913.773  0.310344   187584.19
  16925.166  0.308368   187731.52
  16936.576  0.306414   187674.73
  16948.191  0.304467   187546.87
  16959.822  0.302865   187122.91
  16971.471  0.301017   187638.86
  16983.326  0.299115    186953.7
  16995.197  0.296939   186547.45
  17001.332  0.296092    186499.8