File: data/Sr/Sr_slawsonite_15K_01.xdi
# XDI/1.0  SSRL EXAFS Data Collector 1.1 AD.RGN
# Column.1: energy eV
# Column.2: mutrans
# Column.3: murefer
# Column.4: i0
# Beamline.name: SSRL 4-3 (?)
# Element.edge: K
# Element.symbol: Sr
# Mono.d_spacing: 1.92009
# Mono.name: Si(220)
# Mono.notes: (?) unfocussed, detuned 50%, clockwise at E=16800eV
# Sample.formula: SrAl2Si2O8
# Sample.name: slawsonite
# Sample.prep: powder mixed with B2O3
# Sample.reference: unknown
# Sample.temperature: 15K
# Scan.start_time: 1997-03-18 12:50:19
# ///
#    Note: mono d_spacing is nominal!
#--------------------------------------------
# energy     mutrans     murefer      i0
  15700.043  0.244357  -1.03166   55173.602
  15719.954  0.241878  -1.0348   54369.602
  15739.919  0.23974    -1.03716   52560.602
  15759.935  0.237503  -1.04112   52473.602
  15780.002  0.233375  -1.04466   51436.602
  15799.958  0.232136  -1.04738   50420.602
  15819.965  0.229801  -1.05039   49375.602
  15840.023  0.226895  -1.05387   48430.602
  15859.968  0.224654  -1.05701   47265.602
  15879.964  0.221276  -1.06056   46362.602
  15900.011  0.21833  -1.06401   45366.602
  15919.941  0.215726  -1.06724   44346.602
  15939.925  0.212491  -1.07095   43504.602
  15959.959  0.210077  -1.07374   42454.602
  15980.045  0.207503  -1.07748   41385.602
  16000.012   0.2044181  -1.0805   40638.602
  16020.030  0.201444  -1.08403   39803.602
  16039.929  0.199007  -1.08731   38830.602
  16060.049  0.197098  -1.09022   37968.602
  16080.051  0.19798  -1.09113   36902.602
  16082.448  0.198633  -1.09147   36820.602
  16084.846  0.19956  -1.09131   36588.602
  16087.415  0.200976  -1.09089   36388.602
  16089.813  0.203156  -1.09051   36166.602
  16092.214  0.206689  -1.08966   36053.602
  16094.785  0.213239  -1.08792   35905.602
  16097.187  0.228497  -1.08432   35649.602
  16099.588  0.26393  -1.07623   35470.602
  16102.162  0.335168  -1.05735   35206.602
  16104.565  0.41941  -1.02008   35202.602
  16106.970  0.500239 -0.968303   34958.602
  16109.547  0.530661 -0.925694   34722.602
  16111.952  0.508017 -0.902566   34631.602
  16114.359  0.480113 -0.908473   34255.602
  16116.767  0.459536 -0.926799   34197.602
  16119.345  0.446586 -0.948804   33993.602
  16121.754  0.435272 -0.963435   33830.602
  16124.163  0.424699 -0.969204   33621.602
  16126.746  0.415639 -0.970939   33489.602
  16129.157  0.412186 -0.971683   33215.602
  16131.568  0.415172 -0.970109   32919.602
  16133.980  0.420399 -0.967101     32720.6
  16136.568  0.428234 -0.96294     32672.6
  16138.981  0.437092 -0.959537     32619.6
  16141.396  0.446679  -0.9558034     32444.6
  16143.812  0.454658 -0.951767     32310.6
  16146.400  0.460796 -0.949959     31916.6
  16148.817  0.458568 -0.949306     31826.6
  16151.062  0.453779 -0.950504   63256.184
  16153.481  0.447687 -0.952439   62795.063
  16155.727   0.4427678 -0.954886   62238.816
  16158.146  0.439069 -0.958175   61862.449
  16160.740  0.435666  -0.9618457   61440.957
  16163.334  0.433023 -0.965207   60941.344
  16166.102   0.4295651 -0.967984   60609.605
  16168.871  0.425043 -0.970163   60329.746
  16171.642  0.419446 -0.972046   59867.762
  16174.586   0.4144569 -0.972615   59635.656
  16177.705  0.412824 -0.971763    59753.43
  16180.825  0.41551 -0.969926   60184.078
  16183.946  0.421294 -0.968759   60531.605
  16187.242  0.427841 -0.968888   60639.008
  16190.539   0.4329311 -0.968936   60758.289
  16194.011  0.434738 -0.969324   60697.445
  16197.485  0.433764  -0.9701223    60356.48
  16201.134  0.431629  -0.9702189   60243.391
  16204.785  0.428191 -0.970819    60242.18
  16208.612  0.423772 -0.971974   60090.848
  16212.439   0.4188402 -0.973797   59998.391
  16216.271  0.414207 -0.975699   60069.809
  16220.276  0.41073 -0.977904   60118.109
  16224.459  0.409138 -0.979807   60197.281
  16228.644  0.40971  -0.9811265   60260.336
  16232.832  0.411238 -0.98186   60195.266
  16237.194  0.412123 -0.982593    60331.07
  16241.561  0.41151 -0.983234   60288.754
  16246.104  0.41075 -0.983554   60225.313
  16250.650  0.410512  -0.9836423   60631.754
  16255.199  0.409213 -0.983622   60696.066
  16259.925  0.408783 -0.984584   61151.258
  16264.830  0.409581 -0.986176   61160.328
  16269.737  0.409366 -0.98689   61259.273
  16274.646  0.407253  -0.9875807   61210.098
  16279.736  0.405577 -0.988086   61428.801
  16284.828  0.404883 -0.988831   61768.379
  16290.099   0.4047037 -0.990589   61942.832
  16295.373   0.4026598 -0.992075   62034.164
  16300.827  0.399526 -0.993419   62067.375
  16306.286  0.397321 -0.994669   62435.461
  16311.748   0.3952059 -0.995969   62526.426
  16317.388  0.39343 -0.997014   62713.266
  16323.212  0.394178 -0.997465   62750.984
  16328.861  0.39581 -0.998001   62934.578
  16334.867  0.396554 -0.998801   62985.051
  16340.703  0.395899  -0.9997128   63186.402
  16346.719  0.394281  -1.001   63419.629
  16352.918  0.391656  -1.00257   63578.734
  16359.119  0.389602  -1.00404   63837.715
  16365.326  0.386295  -1.00517    63873.57
  16371.717  0.38433  -1.00629   64126.309
  16378.111  0.383824  -1.00695   64770.922
  16384.689  0.383273  -1.00843    64377.41
  16391.271  0.382866   -1.010061   64431.777
  16398.039  0.382341  -1.01143    64742.02
  16404.813  0.384049  -1.01294   65197.145
  16411.590  0.379895  -1.01409   65211.141
  16418.553  0.378278  -1.01497   65131.016
  16425.521  0.37712  -1.01607    65472.77
  16432.676  0.375728  -1.01738   65518.398
  16439.834  0.376368  -1.01841   66171.906
  16447.180  0.372857  -1.01981   65807.289
  16454.354  0.372085   -1.021238   66273.555
  16461.891  0.370507  -1.02248   66486.688
  16469.438  0.369475  -1.02407   66840.711
  16476.988  0.368596  -1.02544   66907.602
  16484.549  0.36686  -1.02674   66876.367
  16492.295  0.363996  -1.02797   67168.016
  16500.229  0.362212  -1.02934   67215.539
  16508.172  0.360396  -1.03037   67364.945
  16516.121   0.3595593  -1.03191   67499.227
  16524.080  0.358883  -1.03367   67287.375
  16532.227  0.357591  -1.03488   67703.414
  16540.563  0.356371    -1.03611    67987.32
  16548.906  0.355015  -1.03756   68178.109
  16557.262   0.3531622  -1.0389   67865.773
  16565.807  0.350796  -1.04065   67921.313
  16574.357  0.348957  -1.04202   67953.734
  16582.922  0.346576  -1.04297   68134.031
  16591.674  0.345264  -1.04457   68130.203
  16600.438  0.344194  -1.04606   67822.258
  16609.393  0.342611  -1.04742    68511.18
  16618.357  0.340908  -1.0491   68142.984
  16627.332  0.338906  -1.05084   68462.672
  16636.502  0.337287  -1.05236   68242.227
  16645.682  0.335723  -1.05324   68256.664
  16655.053  0.334441   -1.055033   68356.977
  16664.254  0.332834  -1.05659   68225.172
  16673.832  0.330316  -1.05842   68443.234
  16683.420  0.328926  -1.05992    68352.18
  16693.023   0.3270502  -1.06169   68508.008
  16702.635  0.324797  -1.06296   68459.703
  16712.445  0.322065  -1.06426   68436.281
  16722.264  0.321136  -1.06611   68018.734
  16732.281  0.319973  -1.06783   68233.063
  16742.313  0.318366  -1.0696   68178.273
  16752.355  0.315912  -1.0709   68175.359
  16762.596  0.314625  -1.07276    67921.32
  16772.852   0.3130657  -1.07423   67716.156
  16783.117  0.311081  -1.07608   67569.875
  16793.584  0.309794  -1.07797   67931.469
  16804.063  0.306688  -1.07912   67471.938
  16814.744  0.305089  -1.08097   67491.289
  16825.438  0.303854  -1.08229   67541.516
  16836.146  0.301861  -1.08389   67438.617
  16847.059   0.2999957  -1.0854   67264.594
  16857.982  0.298139  -1.0871   66878.453
  16868.922   0.2957252  -1.08905   66944.188
  16880.064  0.294508  -1.09097   66538.797
  16891.223  0.291981  -1.09223   66465.289
  16902.396  0.28944  -1.0937   66800.656
  16913.773  0.287897  -1.09544   66565.898
  16925.166  0.286024  -1.09743   66444.016
  16936.576  0.28442  -1.09949   66429.016
  16948.191  0.282083  -1.10106   66327.883
  16959.822   0.2804303  -1.10265   65996.641
  16971.471  0.278574  -1.10448   65885.266
  16983.326  0.276438  -1.10624   65847.773
  16995.197  0.274093  -1.10784   65721.156
  17001.332  0.273278  -1.10876   65877.797