File: data/Sr/Sr_slawsonite_15K_02.xdi
# XDI/1.0  SSRL EXAFS Data Collector 1.1 AD.RGN
# Column.1: energy eV
# Column.2: mutrans
# Column.3: murefer
# Column.4: i0
# Beamline.name: SSRL 4-3 (?)
# Element.edge: K
# Element.symbol: Sr
# Mono.d_spacing: 1.92009
# Mono.name: Si(220)
# Mono.notes: (?) unfocussed, detuned 50%, clockwise at E=16800eV
# Sample.formula: SrAl2Si2O8
# Sample.name: slawsonite
# Sample.prep: powder mixed with B2O3
# Sample.reference: unknown
# Sample.temperature: 15K
# Scan.start_time: 1997-03-18 12:50:19
# ///
#    Note: mono d_spacing is nominal!
#--------------------------------------------
# energy     mutrans     murefer      i0
  15700.043  0.26511  -1.01748   37011.602
  15719.954  0.260782  -1.02247   36502.602
  15739.919  0.257017  -1.02502   35611.602
  15759.935  0.253049  -1.02975   35166.602
  15780.002  0.249454   -1.033848   34316.602
  15799.958  0.245775  -1.03756   33621.602
  15819.965  0.24218  -1.04154   32885.602
  15840.023  0.238724  -1.04528     32218.6
  15859.968  0.235  -1.04934     31505.6
  15879.964  0.23161  -1.05312     30763.6
  15900.011  0.228364  -1.05732     29981.6
  15919.941  0.225102  -1.06152     29311.6
  15939.925  0.222119  -1.0655     28678.6
  15959.959  0.218875  -1.06966     28086.6
  15980.045  0.215537   -1.073345     27325.6
  16000.012  0.212528  -1.07746     26601.6
  16020.030  0.208856  -1.08108     26087.6
  16039.929  0.206277   -1.084822     25361.6
  16060.049  0.204378  -1.08881     24713.6
  16080.051  0.204591  -1.09101     24225.6
  16082.448  0.204825    -1.09062     24092.6
  16084.846  0.205613   -1.090417     24068.6
  16087.415  0.207143  -1.09029     23940.6
  16089.813  0.20919  -1.09027     23941.6
  16092.214  0.21283  -1.08913     23839.6
  16094.785  0.219561   -1.087159     23726.6
  16097.187  0.234543  -1.08371     23696.6
  16099.588  0.269873  -1.0758     23537.6
  16102.162  0.340493  -1.05643     23536.6
  16104.565  0.424232  -1.0187     23692.6
  16106.970  0.504462 -0.965212     23351.6
  16109.547  0.534927 -0.920759     23317.6
  16111.952   0.5132603 -0.896333     23001.6
  16114.359  0.486858 -0.899894     23116.6
  16116.767  0.465649 -0.918107     23104.6
  16119.345  0.451971 -0.940905     23051.6
  16121.754  0.44099 -0.957111     22835.6
  16124.163   0.4303311 -0.963325     22842.6
  16126.746  0.421454 -0.965438     22727.6
  16129.157   0.4176081 -0.96598     22494.6
  16131.568  0.420404 -0.964563     22423.6
  16133.980  0.425843 -0.961418     22357.6
  16136.568  0.433518  -0.9571344     22267.6
  16138.981  0.441787 -0.953379     22203.6
  16141.396  0.451758 -0.949806     22160.6
  16143.812   0.4599637 -0.945612     22143.6
  16146.400  0.463914 -0.942181     22043.6
  16148.817  0.46212 -0.942131     21913.6
  16151.062  0.457175 -0.942918   43734.184
  16153.481  0.450848 -0.945041   43615.063
  16155.727  0.445954 -0.947418   43432.816
  16158.146  0.442024 -0.950724   43157.449
  16160.740  0.438991 -0.955087   42744.957
  16163.334  0.435879 -0.958821   42694.344
  16166.102  0.432738 -0.961437   42492.605
  16168.871  0.428705 -0.963923   42339.746
  16171.642   0.4225411 -0.965354   42446.762
  16174.586  0.417341 -0.966026   42125.656
  16177.705  0.415583 -0.964753    42426.43
  16180.825  0.418606  -0.9636804   42593.078
  16183.946  0.424357 -0.962617   43286.605
  16187.242  0.430852 -0.962303   43533.008
  16190.539   0.4358101 -0.962449   43396.289
  16194.011   0.4373949 -0.962589   43659.445
  16197.485   0.4361932 -0.96306    43590.48
  16201.134  0.43454 -0.963554   43543.391
  16204.785  0.43093 -0.963839    43514.18
  16208.612  0.426717 -0.964874   43753.848
  16212.439  0.4231 -0.967029   43885.391
  16216.271  0.418261 -0.968962   44032.809
  16220.276  0.414804 -0.971239   44128.109
  16224.459  0.413047  -0.9733947   44043.281
  16228.644  0.413222 -0.974322   44362.336
  16232.832  0.415109 -0.975315   44853.266
  16237.194  0.415898 -0.975981    44885.07
  16241.561  0.415275 -0.976452   44542.754
  16246.104     0.41411 -0.976175   45013.313
  16250.650  0.413295 -0.976501   44964.754
  16255.199  0.41268 -0.976501   45082.066
  16259.925   0.4122657 -0.977629   45161.258
  16264.830  0.412166 -0.978392   45476.328
  16269.737  0.41133 -0.979258   45828.273
  16274.646  0.409879 -0.979697   45833.098
  16279.736   0.4078994 -0.980458   46226.801
  16284.828  0.407537 -0.981664   46157.379
  16290.099  0.406927 -0.982993   46409.832
  16295.373  0.404838 -0.984679   46693.164
  16300.827  0.401669 -0.985796   47523.375
  16306.286  0.399728 -0.987403   47109.461
  16311.748  0.397257 -0.988657   47292.426
  16317.388  0.39567 -0.989664   47529.266
  16323.212   0.3967085 -0.990295   47616.984
  16328.861  0.398619 -0.990457   48197.578
  16334.867  0.399159 -0.991164   48181.051
  16340.703  0.398784 -0.99263   48385.402
  16346.719  0.396981  -0.9940706   48503.629
  16352.918  0.394208 -0.995119   49122.734
  16359.119  0.391995 -0.996855   49093.715
  16365.326   0.3888512 -0.997946    49651.57
  16371.717  0.387278 -0.999171   49755.309
  16378.111  0.386126 -0.999669   49699.922
  16384.689  0.385813  -1.00131    50193.41
  16391.271  0.38468  -1.00206   50359.777
  16398.039   0.3841007   -1.003971    50549.02
  16404.813  0.383168  -1.00515   50752.145
  16411.590  0.38161  -1.00668   51321.141
  16418.553  0.379943   -1.007107   51391.016
  16425.521  0.37823  -1.00861    51498.77
  16432.676  0.375988   -1.009546   51865.398
  16439.834  0.374599  -1.01066   52179.906
  16447.180  0.373918  -1.01157   52190.293
  16454.354  0.373436  -1.01334   52755.551
  16461.891  0.372048   -1.014774   52875.691
  16469.438  0.370347  -1.01607   52904.707
  16476.988  0.368849  -1.01714   53101.602
  16484.549  0.367211   -1.018497   53333.371
  16492.295  0.364836  -1.01986    53791.02
  16500.229  0.363047  -1.02124   53646.543
  16508.172  0.361525  -1.0227   54374.945
  16516.121  0.359723  -1.02388   54350.223
  16524.080  0.360156   -1.025387   54961.379
  16532.227  0.359311  -1.02688    54801.41
  16540.563  0.357145  -1.02792    54902.32
  16548.906  0.355891  -1.02935   55385.109
  16557.262  0.353667  -1.03059   55508.773
  16565.807   0.3514624  -1.03197   55996.316
  16574.357  0.349987  -1.03329   55744.734
  16582.922  0.348044  -1.03473   56180.031
  16591.674  0.346652  -1.03623   56217.203
  16600.438   0.3453437  -1.0379   56459.254
  16609.393  0.343909   -1.039356   56535.184
  16618.357   0.3421254  -1.04065   56694.988
  16627.332  0.340273  -1.04232   57001.668
  16636.502  0.33867  -1.04393    57290.23
  16645.682  0.337445  -1.04548   57457.664
  16655.053   0.3355675  -1.04716    57632.98
  16664.254  0.333756  -1.04847   57741.168
  16673.832  0.331586  -1.05053   57790.238
  16683.420   0.3297312  -1.05178   58157.184
  16693.023  0.328173  -1.05356   58405.004
  16702.635   0.3257985  -1.05495   58261.703
  16712.445  0.324533  -1.05666   58595.281
  16722.264  0.323404  -1.05855   58975.734
  16732.281  0.322009  -1.06029   58917.066
  16742.313  0.320083   -1.062132   59047.273
  16752.355  0.317546   -1.063355   58912.359
  16762.596  0.315332  -1.06475    58862.32
  16772.852  0.313806   -1.066936    58970.16
  16783.117  0.312455  -1.06894   59166.875
  16793.584  0.310404  -1.07004   59078.469
  16804.063  0.307991  -1.07178   59584.941
  16814.744   0.3060521  -1.07338   59314.289
  16825.438  0.30422  -1.0748   59313.516
  16836.146  0.301621  -1.0759   59442.617
  16847.059   0.3002359  -1.07816   59626.598
  16857.982  0.298331  -1.0799   59479.453
  16868.922  0.296037  -1.08158   59687.188
  16880.064   0.2944791  -1.08328   59636.801
  16891.223  0.293694  -1.08535   59573.289
  16902.396  0.290953  -1.08691   59616.652
  16913.773  0.28929  -1.08899   59752.895
  16925.166  0.28722  -1.09059   59632.016
  16936.576  0.284794   -1.091839   59825.012
  16948.191  0.283274  -1.09377   59924.887
  16959.822  0.281194  -1.09584   59864.637
  16971.471  0.27852  -1.09675   59812.266
  16983.326  0.27634  -1.09918   59924.773
  16995.197  0.275816  -1.10073   60000.156
  17001.332  0.274983  -1.10194   60027.801