File: data/Sr/Sr_slawsonite_rt_02.xdi
# XDI/1.0  SSRL EXAFS Data Collector 1.1 AD.RGN
# Column.1: energy eV
# Column.2: mutrans
# Column.3: i0
# Beamline.name: SSRL 4-3 (?)
# Element.edge: K
# Element.symbol: Sr
# Mono.d_spacing: 1.92009
# Mono.name: Si(220)
# Mono.notes: (?) unfocussed, detuned 75%, clockwise at E=16300eV
# Sample.formula: SrAl2(SiO4)2
# Sample.name: slawsonite
# Sample.prep: powder mixed with B2O3
# Sample.reference: none
# Sample.temperature: room temperature
# Scan.start_time: 1997-03-18 19:29:57
# ///
#    Note: mono d_spacing is nominal!
#--------------------------------------------
# energy     mutrans      i0
  15700.043   0.2058071   66648.602
  15719.954  0.200385   65585.602
  15739.919  0.205218   63872.602
  15759.935  0.19561   64335.602
  15780.002    0.194245   63668.602
  15799.958  0.193758   63058.602
  15819.965  0.191736   62394.602
  15840.023   0.1861454   61427.602
  15859.968  0.190377   61206.602
  15879.964  0.183182   60037.602
  15900.011  0.186905   59669.602
  15919.941  0.185343   59086.602
  15939.925  0.181697   58221.602
  15959.959  0.180583   57556.602
  15980.045  0.178355   56755.602
  16000.012  0.175384   55986.602
  16020.030  0.174671   55334.602
  16039.929  0.173636   54676.602
  16060.049  0.172486   53981.602
  16080.051  0.17348   53145.602
  16082.448  0.175039   53160.602
  16084.846  0.175462   52993.602
  16087.415   0.1768816   52863.602
  16089.813  0.179835   52762.602
  16092.214  0.182474   52671.602
  16094.785  0.189176   52618.602
  16097.187  0.200967   52467.602
  16099.588  0.233242   52448.602
  16102.162  0.301274   52237.602
  16104.565  0.391254   52179.602
  16106.970   0.4899868   52106.602
  16109.547  0.554671   52032.602
  16111.952  0.550958   51971.602
  16114.359  0.517385   51864.602
  16116.767  0.485672   51737.602
  16119.345  0.467943   51631.602
  16121.754  0.455836   51516.602
  16124.163  0.445138   51358.602
  16126.746  0.435631   51359.602
  16129.157  0.430262   51144.602
  16131.568  0.431384   51069.602
  16133.980  0.436596   50737.602
  16136.568   0.4439804   50714.602
  16138.981  0.452991   50709.602
  16141.396  0.462148   50777.602
  16143.812  0.470618   50655.602
  16146.400  0.476363   50533.602
  16148.817  0.475864   50474.602
  16151.062  0.470952   100749.19
  16153.481  0.465638   100465.09
  16155.727  0.460862   100302.91
  16158.146  0.456476   100025.63
  16160.740  0.453352   99695.242
  16163.334  0.450741   99411.773
  16166.102  0.448176   99174.203
  16168.871  0.444149   99021.539
  16171.642  0.439746   98987.789
  16174.586  0.434427   98961.938
  16177.705  0.43217   99322.992
  16180.825  0.433529   99835.953
  16183.946  0.437425   100573.82
  16187.242  0.442904   101569.59
  16190.539  0.446842   102296.27
  16194.011  0.449135   102692.85
  16197.485  0.448533   102886.34
  16201.134  0.447104   103289.73
  16204.785  0.444382   103679.03
  16208.612  0.440324   104128.23
  16212.439  0.436891   104578.34
  16216.271  0.433146   105040.36
  16220.276  0.429807   105569.28
  16224.459  0.428302   106228.11
  16228.644  0.427735   106734.84
  16232.832  0.427927   107432.48
  16237.194  0.428188   107981.02
  16241.561  0.428004   108734.47
  16246.104  0.42747   109327.82
  16250.650  0.427123   110117.08
  16255.199  0.426246   110914.24
  16259.925  0.425675   111647.31
  16264.830  0.426245   112400.29
  16269.737  0.425944   113248.17
  16274.646  0.424929   114013.96
  16279.736  0.423002   114880.66
  16284.828  0.421788   115722.25
  16290.099  0.421193   116622.76
  16295.373  0.419464   117670.16
  16300.827  0.417562   118416.48
  16306.286  0.416018    119224.7
  16311.748  0.414302   120258.82
  16317.388  0.413243   121398.85
  16323.212  0.413279   122166.79
  16328.861   0.4135999   123291.63
  16334.867  0.413547   124299.38
  16340.703  0.412768   125317.03
  16346.719  0.411187   126430.59
  16352.918  0.409924   127347.05
  16359.119  0.407918   128359.42
  16365.326  0.405601    129413.7
  16371.717  0.403853   130612.88
  16378.111  0.403013   131652.97
  16384.689  0.401878   132633.95
  16391.271  0.401089   133813.86
  16398.039  0.400166   134928.66
  16404.813   0.3993699   136201.36
  16411.590  0.397908   137275.98
  16418.553  0.396598    138421.5
  16425.521  0.395652   139444.92
  16432.676  0.394027   140449.25
  16439.834  0.39274   141629.48
  16447.180  0.391625   142793.62
  16454.354  0.390726   144022.67
  16461.891  0.389161   145121.62
  16469.438  0.388214   146349.48
  16476.988  0.386762   147550.25
  16484.549   0.3852689   148493.92
  16492.295  0.383664   149323.48
  16500.229  0.382145   150443.97
  16508.172  0.38065   151476.36
  16516.121  0.379189   152666.64
  16524.080  0.378046   153876.84
  16532.227  0.376943   154920.94
  16540.563  0.375551   155826.95
  16548.906  0.374106   157013.86
  16557.262  0.372739   158005.69
  16565.807  0.371088   158898.41
  16574.357  0.369266   159918.03
  16582.922  0.367818   160773.56
  16591.674  0.366212   161478.02
  16600.438   0.3647861   162420.36
  16609.393  0.363056   163266.61
  16618.357  0.361347   164211.77
  16627.332  0.360226   165199.83
  16636.502  0.358617    166082.8
  16645.682  0.356856   166956.66
  16655.053  0.35525   167901.44
  16664.254  0.353444   168562.12
  16673.832   0.3517565   169377.72
  16683.420  0.350153    170387.2
  16693.023   0.3483963   171465.61
  16702.635   0.3466642   171813.92
  16712.445  0.345425   172317.12
  16722.264   0.3433646   172974.25
  16732.281  0.341768   173622.27
  16742.313  0.33981    174203.2
  16752.355  0.339598   175165.03
  16762.596   0.3374321   175535.77
  16772.852  0.334555   175802.41
  16783.117  0.333083   175961.97
  16793.584   0.3308056   176972.42
  16804.063  0.328915   177695.78
  16814.744  0.326976   177507.05
  16825.438  0.324873   178119.22
  16836.146  0.323659    178194.3
  16847.059  0.321835   178146.28
  16857.982  0.319989   178450.17
  16868.922  0.317886   178605.97
  16880.064   0.3160382   178613.66
  16891.223  0.314239   179271.27
  16902.396  0.312371   179042.78
  16913.773  0.310497   178776.19
  16925.166  0.308511   179501.52
  16936.576  0.305742   179447.73
  16948.191  0.304335   179075.87
  16959.822  0.302199   178817.91
  16971.471  0.300431   179239.86
  16983.326  0.298175    179015.7
  16995.197  0.296278   178898.45
  17001.332  0.295486    178881.8