File: data/Sr/SrCO3_12K_01.xdi
# XDI/1.0 EXAFS Data Collector 1.1 AD.RGN
# Column.1: energy eV
# Column.2: mutrans
# Column.3: i0
# Beamline.name: SSRL 4-3 (?)
# Detector.I0: N2 15cm
# Detector.I1: Ar 30cm
# Element.edge: K
# Element.symbol: Sr
# Mono.d_spacing: 1.92009
# Mono.name: Si(220)
# Mono.notes: (?) unfocussed, detuned 50%, clockwise at E=16800eV
# Sample.formula: SrCO3
# Sample.name: strontianite
# Sample.prep: powder mixed with B2O3 (1:10)
# Sample.reference: none
# Sample.temperature: 12K
# Scan.start_time: 1997-03-17 12:43:45
# ///
#    Note: mono d_spacing is nominal!
#-------------
#   energy   mutrans      i0
  15700.043 -0.147355   37319.199
  15719.954 -0.151136   36836.199
  15739.919 -0.153605   35668.199
  15759.935 -0.15805   36122.199
  15780.002 -0.161162   35608.199
  15799.958 -0.164618   35268.199
  15819.965  -0.1675485   34780.199
  15840.023  -0.1713578   34486.199
  15859.968  -0.1737261   33985.199
  15879.964  -0.1765138   33535.199
  15900.011 -0.17996   33149.199
  15919.941 -0.182438   32737.199
  15939.925 -0.185632   32356.199
  15959.959 -0.188555   31951.199
  15980.045  -0.1911594   31388.199
  16000.012 -0.193405   31058.199
  16020.030 -0.196213   30666.199
  16039.929 -0.197612   30221.199
  16060.049 -0.199385   29816.199
  16080.051 -0.195806   29363.199
  16099.931 -0.0539521   28899.199
  16120.035  0.207462   28507.199
  16122.443  0.193757   28420.199
  16125.024   0.1871395   28329.199
  16127.435   0.1853972   28252.199
  16130.019  0.192551   28136.199
  16132.431  0.205021   27917.199
  16135.016  0.219371   27861.199
  16137.429  0.233662   27830.199
  16140.016   0.2528461   27778.199
  16142.431  0.271103   27739.199
  16145.020  0.283698   27655.199
  16147.436  0.287813   27549.199
  16150.024  0.284165   27458.199
  16152.443  0.276198   27364.199
  16155.034  0.263375   27260.199
  16156.418   0.2559556   27207.176
  16157.800  0.247864   27126.104
  16159.356  0.238293   27053.982
  16160.913  0.230623   26977.814
  16162.642  0.223668   26926.598
  16164.372  0.217491   26858.332
  16166.275  0.210923    26799.02
  16168.179  0.206114   26809.658
  16170.084  0.202569   26787.248
  16172.160  0.200813   26808.791
  16174.412  0.20307   26798.285
  16176.665  0.208339    26838.73
  16178.917  0.213086   26945.129
  16181.345   0.2189205   27031.477
  16183.772  0.221839   27254.779
  16186.374  0.223763   27528.031
  16188.977  0.224431   27787.236
  16191.755  0.225236   27995.393
  16194.532  0.226126   28168.502
  16197.485  0.226654   28262.563
  16200.438  0.22818   28422.574
  16203.394  0.228582   28554.539
  16206.524  0.227894   28695.453
  16209.829  0.223438   28826.322
  16212.961  0.219003   29099.141
  16216.444  0.210844   29302.912
  16219.927  0.20278   29430.635
  16223.413  0.197183   29655.311
  16226.900  0.194194   29860.936
  16230.563  0.193002   30030.516
  16234.401  0.193434   30234.045
  16238.242  0.194704   30510.527
  16242.084  0.196173   30755.961
  16246.104  0.198655   30983.346
  16250.300  0.201999   31228.684
  16254.323  0.204663   31497.973
  16258.698  0.202297   31714.215
  16262.902  0.197412   32019.408
  16267.282  0.194124   32265.553
  16271.841  0.195166   32554.648
  16276.400  0.196409   32872.695
  16280.965  0.197704   33179.695
  16285.705  0.196317   33397.648
  16290.450  0.19237   33738.551
  16295.373  0.187514    34052.41
  16300.300   0.1848679   34390.215
  16305.404  0.180781   34627.977
  16310.514  0.178426   35034.688
  16315.624  0.17705   35310.348
  16320.918  0.177851   35633.965
  16326.212  0.18022   35936.531
  16331.687  0.184698   36277.047
  16337.165  0.184228    36572.52
  16342.827  0.181816   36921.941
  16348.490  0.177698   37239.313
  16354.333  0.174942   37611.641
  16360.007  0.17093   37946.918
  16366.036   0.1679236   38161.145
  16372.071  0.167388   38525.328
  16378.111  0.16836   38946.461
  16384.156  0.168925   39257.543
  16390.383  0.165973   39571.578
  16396.791  0.163042   39966.566
  16403.207  0.159938   40248.508
  16409.627    0.158419   40680.398
  16416.230   0.1578638   40971.242
  16422.840  0.158259   41220.039
  16429.455    0.158875   41666.785
  16436.254   0.1575382   41988.484
  16443.236  0.155384   42348.137
  16450.049   0.1531189   42704.738
  16457.223  0.15019   42991.293
  16464.227  0.14855   43340.801
  16471.412  0.14673   43587.258
  16478.787  0.144745   43909.668
  16485.988   0.1430245   44263.027
  16493.557  0.142607   44607.344
  16500.949  0.142494   44909.609
  16508.533  0.140051   45116.824
  16516.301   0.1384234   45408.992
  16523.898  0.136851   45707.113
  16531.865  0.135994   46125.188
  16539.656  0.13361   46294.211
  16547.639  0.13283   46637.188
  16555.809  0.130145   46874.117
  16563.986  0.127903   47094.996
  16572.176  0.127125   47400.828
  16580.371  0.125169   47791.609
  16588.756  0.125714   48209.348
  16597.334  0.123428   48387.031
  16605.736  0.12069   48577.672
  16614.514  0.118225   48871.262
  16623.119  0.116042   49084.805
  16631.916   0.1149483   49300.301
  16640.725    0.113985   49522.746
  16649.723   0.1124488   49735.145
  16658.732  0.111464   50052.492
  16667.936  0.109654   49993.793
  16676.965  0.107134   50445.047
  16686.375  0.105454   50685.254
  16695.609  0.102966    50823.41
  16705.041  0.101282    50950.52
  16714.666  0.100962   51093.578
  16724.119 0.0991727   51281.594
  16733.768 0.0978977   51349.555
  16743.613 0.0962586   51649.473
  16753.285 0.0938999    51805.34
  16763.342 0.092602    51856.16
  16773.223 0.0910983    51883.93
  16783.305 0.0884685   51955.656
  16793.396 0.0876458   52188.328
  16803.689 0.0860707   52379.957
  16813.994 0.0840568   52322.535
  16824.313 0.0818181   52416.066
  16834.832  0.08097037   52641.547
  16845.363 0.0797071    52745.98
  16855.910 0.0785406   52832.367
  16866.658 0.0768957   52820.707
  16877.420 0.0750459   52852.996
  16888.385 0.0725233   52748.238
  16899.174 0.071372    52739.43
  16910.170 0.0697499   52689.574
  16921.367 0.0686767   52700.672
  16932.580 0.0672299   52627.719
  16943.809 0.0653922   52494.719
  16955.055 0.0636688   52493.672
  16966.504 0.0620296   52393.578
  16977.969 0.0609873   52352.434
  16989.643 0.0598364   52197.242
  17001.332 0.057938       52157