File: data/Sr/SrCO3_12K_02.xdi
# XDI/1.0 EXAFS Data Collector 1.1 AD.RGN
# Column.1: energy eV
# Column.2: mutrans
# Column.3: i0
# Beamline.name: SSRL 4-3 (?)
# Detector.I0: N2 15cm
# Detector.I1: Ar 30cm
# Element.edge: K
# Element.symbol: Sr
# Mono.d_spacing: 1.92009
# Mono.name: Si(220)
# Mono.notes: (?) unfocussed, detuned 50%, clockwise at E=16800eV
# Sample.formula: SrCO3
# Sample.name: strontianite
# Sample.prep: powder mixed with B2O3 (1:10)
# Sample.reference: none
# Sample.temperature: 12K
# Scan.start_time: 1997-03-17 12:43:45
# ///
#    Note: mono d_spacing is nominal!
#-------------
#   energy   mutrans      i0
  15700.043 -0.0404798   52989.199
  15719.954 -0.0460176   51876.199
  15739.919 -0.0422419   50270.199
  15759.935 -0.0450585   50489.199
  15780.002 -0.0460947   49625.199
  15799.958 -0.0494991   48734.199
  15819.965 -0.0485663   48126.199
  15840.023 -0.0499742   47381.199
  15859.968 -0.0495926   46673.199
  15879.964 -0.0511479   45809.199
  15900.011 -0.0524651   44982.199
  15919.941 -0.05501429   44204.199
  15939.925 -0.0575266   43571.199
  15959.959 -0.0591692   42720.199
  15980.045 -0.0598285   41927.199
  16000.012 -0.0614729   41229.199
  16020.030 -0.0630504   40442.199
  16039.929 -0.0643356   39789.199
  16060.049 -0.0644821   39005.199
  16080.051 -0.0606953   38098.199
  16099.931 0.0813072   37444.199
  16120.035  0.333773   36584.199
  16122.443   0.3211093   36500.199
  16125.024  0.314679   36414.199
  16127.435   0.3131925   36364.199
  16130.019  0.321104   36333.199
  16132.431  0.334626   35971.199
  16135.016  0.348094   35980.199
  16137.429  0.3616   35895.199
  16140.016  0.382008   36049.199
  16142.431  0.39882   35860.199
  16145.020  0.412185   35820.199
  16147.436  0.416318   35659.199
  16150.024  0.412656   35503.199
  16152.443  0.405617   35536.199
  16155.034  0.392796   35224.199
  16156.418   0.3854538   35178.176
  16157.800  0.376851   35101.105
  16159.356  0.368107   35128.984
  16160.913  0.361027   35052.816
  16162.642  0.354357   35001.598
  16164.372   0.3482762   34845.332
  16166.275  0.343267    35010.02
  16168.179  0.337505   34796.656
  16170.084  0.334537    34973.25
  16172.160  0.33418   34907.789
  16174.412  0.33669   35047.285
  16176.665  0.342169    35284.73
  16178.917  0.347439   35199.129
  16181.345  0.352851   35523.477
  16183.772  0.356971   35956.777
  16186.374  0.357691   36205.031
  16188.977  0.358655   36601.238
  16191.755  0.359428   36833.395
  16194.532  0.360278     37038.5
  16197.485  0.360783   37107.563
  16200.438  0.361827   37242.574
  16203.394  0.363222   37488.539
  16206.524  0.362387   37810.453
  16209.829  0.358753    37956.32
  16212.961  0.353403   38139.141
  16216.444   0.3463397    38405.91
  16219.927  0.339051   38534.637
  16223.413  0.333749   38930.309
  16226.900   0.3313929   39288.938
  16230.563  0.330888   39621.516
  16234.401  0.331267   39858.047
  16238.242  0.332728   40164.527
  16242.084  0.334611   40471.961
  16246.104   0.3366413   40926.348
  16250.300  0.340063   41109.684
  16254.323  0.342534   41438.973
  16258.698  0.34128   41787.215
  16262.902  0.335771   42018.406
  16267.282  0.333744   42715.551
  16271.841  0.334327   42870.648
  16276.400   0.3357472   43166.695
  16280.965  0.338047   43794.695
  16285.705  0.336696   44047.648
  16290.450  0.332927   44587.551
  16295.373  0.328083    44921.41
  16300.300  0.325052   45229.215
  16305.404  0.3228   45721.977
  16310.514  0.320523   46253.688
  16315.624  0.318831   46624.348
  16320.918  0.320679   47104.965
  16326.212   0.3236089   47475.531
  16331.687  0.327185   48052.047
  16337.165  0.327837    48395.52
  16342.827  0.325953   48856.941
  16348.490  0.322495   49353.313
  16354.333  0.319127   49782.641
  16360.007  0.315891   49996.918
  16366.036  0.313148   50506.145
  16372.071  0.312934   51253.328
  16378.111  0.313486   51380.461
  16384.156  0.314345   51935.543
  16390.383  0.312735   52237.578
  16396.791  0.309966   52841.566
  16403.207  0.308233   53076.508
  16409.627  0.305978   53718.398
  16416.230  0.305834   54025.242
  16422.840  0.306867   54480.039
  16429.455   0.3080212   55083.785
  16436.254  0.306811   55115.484
  16443.236  0.305642   55874.137
  16450.049  0.303563   56252.738
  16457.223  0.300986   56505.293
  16464.227  0.298954   56797.801
  16471.412  0.298311   57401.258
  16478.787  0.296961   57596.668
  16485.988  0.294888   58088.027
  16493.557  0.295208   58498.344
  16500.949  0.295112   58748.609
  16508.533  0.293779   59267.824
  16516.301  0.292406   59423.992
  16523.898  0.290798   60075.113
  16531.865  0.290315   60415.188
  16539.656   0.2888324   60762.211
  16547.639   0.2877852   61017.188
  16555.809  0.286135   61711.117
  16563.986  0.284028   61617.996
  16572.176  0.283068   61754.828
  16580.371  0.282478   62314.609
  16588.756  0.282381   62582.348
  16597.334  0.280729   62923.031
  16605.736  0.278661   63160.672
  16614.514  0.276411   63633.262
  16623.119   0.2750562   64048.805
  16631.916  0.274218   64271.301
  16640.725  0.274176   64657.746
  16649.723  0.273055   64414.145
  16658.732  0.272228   64658.492
  16667.936   0.2710343   64538.793
  16676.965  0.268607   65606.047
  16686.375  0.267122   65424.254
  16695.609  0.265913   65927.414
  16705.041  0.264881   65820.516
  16714.666  0.264715   65770.578
  16724.119  0.263397   66170.594
  16733.768  0.261843   66518.555
  16743.613  0.26015   66819.469
  16753.285  0.25801   66650.344
  16763.342  0.256948   67109.156
  16773.223   0.2563863    66836.93
  16783.305  0.254048   66963.656
  16793.396  0.253874   67206.328
  16803.689  0.251773   67444.953
  16813.994   0.2512351   67461.531
  16824.313  0.250124   67366.063
  16834.832  0.248661   67558.547
  16845.363  0.247645   67563.984
  16855.910  0.245489   67952.367
  16866.658  0.244305   67678.703
  16877.420  0.242292   67936.992
  16888.385  0.241   67987.234
  16899.174  0.239886    67778.43
  16910.170  0.238495   68146.578
  16921.367  0.237998   67743.672
  16932.580  0.237071   68224.719
  16943.809  0.236023   67727.719
  16955.055  0.234354   67825.672
  16966.504  0.231673   67981.578
  16977.969  0.233074    68172.43
  16989.643  0.229503   67843.242
  17001.332  0.228886       67587