File: data/Sr/SrCO3_rt_01.xdi
# XDI/1.0  SSRL EXAFS Data Collector 1.1 AD.RGN
# Column.1: energy eV
# Column.2: mutrans
# Column.3: i0
# Beamline.name: SSRL 4-3 (?)
# Element.edge: K
# Element.symbol: Sr
# Mono.d_spacing: 1.92009
# Mono.name: Si(220)
# Mono.notes: (?) unfocussed, detuned 50%, clockwise at E=16800eV
# Sample.formula: SrCO3
# Sample.name: strontianite
# Sample.prep: powder mixed with B2O3
# Sample.reference: none
# Sample.temperature: room temperature
# Scan.start_time: 1997-03-18 20:19:50
# ///
#    Note: mono d_spacing is nominal!
#--------------------------------------------
# energy     mutrans         i0
  15700.043 -0.00684553   68087.602
  15719.954 -0.00586758   67749.602
  15739.919 6.53139e-05   65914.602
  15759.935 -0.0101197   66334.602
  15780.002 -0.0106984   65703.602
  15799.958 -0.0115388   65028.602
  15819.965 -0.01070706   64535.602
  15840.023 -0.0101219   63961.602
  15859.968 -0.01270015   63194.602
  15879.964 -0.0129164   62437.602
  15900.011 -0.0100642   61957.602
  15919.941 -0.01080824   61443.602
  15939.925 -0.0122657   60747.602
  15959.959 -0.0124101   60116.602
  15980.045 -0.0111786   59485.602
  16000.012 -0.0133949   58709.602
  16020.030 -0.0127077   58152.602
  16039.929 -0.0133631   57363.602
  16060.049 -0.0108485   56630.602
  16080.051 -0.00294269   55886.602
  16082.448 7.7157e-05   55745.602
  16084.846 0.00320234   55767.602
  16087.415 0.00753854   55564.602
  16089.813 0.0142379   55478.602
  16092.214 0.0230537   55300.602
  16094.785 0.03986   55156.602
  16097.187 0.0715536   54990.602
  16099.588  0.152159   54958.602
  16102.162  0.325747   54793.602
  16104.565  0.555824   54667.602
  16106.970  0.851298   54580.602
  16109.547   1.12858   54388.602
  16111.952   1.23585   54411.602
  16114.359   1.13696   54157.602
  16116.767  0.969959   54060.602
  16119.345  0.831188   53925.602
  16121.754  0.767562   53783.602
  16124.163  0.743445   53757.602
  16126.746  0.734682   53607.602
  16129.157  0.738205   53543.602
  16131.568  0.756912   53339.602
  16133.980  0.781747   53061.602
  16136.568  0.809577   52853.602
  16138.981  0.837345   52962.602
  16141.396  0.867701   52975.602
  16143.812  0.894937   52825.602
  16146.400  0.910975   52754.602
  16148.817  0.91136   52528.602
  16151.062  0.9036   104741.19
  16153.481  0.890773   104673.09
  16155.727  0.873851   104367.91
  16158.146  0.851753   104124.63
  16160.740  0.829775   103776.24
  16163.334  0.813016   103618.77
  16166.102  0.797684    103223.2
  16168.871  0.786064   103004.54
  16171.642  0.780859   102826.79
  16174.586  0.783685   102833.94
  16177.705  0.792728   102771.99
  16180.825  0.804622   103435.95
  16183.946  0.812115   104109.82
  16187.242  0.816579   105219.59
  16190.539  0.817986   105910.27
  16194.011  0.818294   106337.85
  16197.485    0.820148   106569.34
  16201.134  0.82269   106851.73
  16204.785  0.822699   107116.03
  16208.612  0.818058   107473.23
  16212.439  0.809107   107832.34
  16216.271   0.7987531   108382.36
  16220.276  0.787749   108926.28
  16224.459  0.780131   109515.11
  16228.644  0.777073   110036.84
  16232.832  0.775976   110551.48
  16237.194  0.776463   111134.02
  16241.561  0.777707   111642.47
  16246.104  0.780028   112324.82
  16250.650  0.784357   113175.08
  16255.199  0.786321   113866.24
  16259.925  0.783606   114670.31
  16264.830  0.780292   115430.29
  16269.737  0.781954   116164.17
  16274.646  0.784302   116990.96
  16279.736  0.784386   117880.66
  16284.828   0.7807578   118607.25
  16290.099  0.775828   119566.76
  16295.373  0.771042   120347.16
  16300.827  0.767271   121302.48
  16306.286  0.763931    122088.7
  16311.748  0.760681   123137.82
  16317.388  0.760327   124003.85
  16323.212  0.761722   124939.79
  16328.861  0.764096   125983.63
  16334.867  0.764898   126881.38
  16340.703    0.763873   128034.03
  16346.719  0.760374   129110.59
  16352.918  0.75681   130084.05
  16359.119  0.753334   131255.42
  16365.326  0.750924    132216.7
  16371.717  0.749554   133437.87
  16378.111  0.748604   134440.97
  16384.689  0.746807   135497.95
  16391.271  0.743651   136627.86
  16398.039  0.740865   137711.66
  16404.813  0.738382   138903.36
  16411.590  0.736699   139892.98
  16418.553  0.737086    141034.5
  16425.521  0.736847   142001.92
  16432.676  0.735752   143234.25
  16439.834  0.733611   144337.48
  16447.180  0.731334   145271.62
  16454.354  0.728786   146353.67
  16461.891  0.726526   147450.62
  16469.438  0.724677   148701.48
  16476.988  0.722736   149830.25
  16484.549  0.720355   150841.92
  16492.295  0.718584   151987.48
  16500.229  0.717   153031.97
  16508.172  0.714857   154188.36
  16516.121  0.712739   155130.64
  16524.080  0.71063   156046.84
  16532.227  0.708669   157137.94
  16540.563  0.706652   158455.95
  16548.906  0.704205   159138.86
  16557.262  0.701901   160148.69
  16565.807  0.699598   161102.41
  16574.357  0.697687   162070.03
  16582.922   0.6958256   163287.56
  16591.674  0.694538   164472.02
  16600.438  0.690926   164709.36
  16609.393  0.688765   165506.61
  16618.357  0.686176   166692.77
  16627.332  0.684028   167681.83
  16636.502  0.681693    168400.8
  16645.682  0.679672   169349.66
  16655.053  0.677033   169875.44
  16664.254  0.674848   170659.12
  16673.832  0.671954   171163.72
  16683.420   0.6696438    172303.2
  16693.023  0.667166   173426.61
  16702.635  0.664985   173958.92
  16712.445  0.662662   174389.12
  16722.264  0.660125   175003.25
  16732.281  0.65726   175497.27
  16742.313  0.655202    176067.2
  16752.355  0.652405   176580.03
  16762.596  0.649818   177002.77
  16772.852  0.647326   177383.41
  16783.117  0.644874   177216.97
  16793.584  0.642423   178329.42
  16804.063  0.639569   178856.78
  16814.744  0.637234   179215.05
  16825.438   0.6348489   179516.22
  16836.146  0.632138    179974.3
  16847.059  0.629369   180012.28
  16857.982  0.626557   180078.17
  16868.922  0.623885   180515.97
  16880.064  0.621498   180219.66
  16891.223  0.618512   180825.27
  16902.396  0.616327   181018.78
  16913.773  0.613432   180954.19
  16925.166   0.6106598   180943.52
  16936.576  0.607503   181285.73
  16948.191  0.605006   181283.87
  16959.822  0.602384   181034.91
  16971.471  0.599677   180746.86
  16983.326  0.597291    180583.7
  16995.197  0.594288   180129.45
  17001.332   0.5930301    180407.8