File: data/Sr/SrCO3_12K_03.xdi
# XDI/1.0 EXAFS Data Collector 1.1 AD.RGN
# Column.1: energy eV
# Column.2: mutrans
# Column.3: i0
# Beamline.name: SSRL 4-3 (?)
# Detector.I0: N2 15cm
# Detector.I1: Ar 30cm
# Element.edge: K
# Element.symbol: Sr
# Mono.d_spacing: 1.92009
# Mono.name: Si(220)
# Mono.notes: (?) unfocussed, detuned 50%, clockwise at E=16800eV
# Sample.formula: SrCO3
# Sample.name: strontianite
# Sample.prep: powder mixed with B2O3 (1:10)
# Sample.reference: none
# Sample.temperature: 12K
# Scan.start_time: 1997-03-17 13:38:14
# ///
#    Note: mono d_spacing is nominal!
#-------------
#   energy   mutrans      i0
  15700.043 -0.0311336   51386.199
  15719.954 -0.036099   50410.199
  15739.919 -0.0376785   48623.199
  15759.935 -0.0407579   48774.199
  15780.002 -0.0413727   47987.199
  15799.958 -0.0435725   47153.199
  15819.965 -0.0440847   46349.199
  15840.023 -0.04723987   45624.199
  15859.968 -0.0484093   44798.199
  15879.964 -0.0509776   44073.199
  15900.011 -0.0516439   43320.199
  15919.941 -0.0536763   42580.199
  15939.925 -0.055095   41807.199
  15959.959 -0.057123   41098.199
  15980.045 -0.0593379   40403.199
  16000.012 -0.0605072   39663.199
  16020.030 -0.0621531   38908.199
  16039.929 -0.0633383   38203.199
  16060.049 -0.0632903   37437.199
  16080.051 -0.0595678   36821.199
  16099.931  0.08130978   35919.199
  16120.035  0.334624   35173.199
  16122.443  0.322344   35358.199
  16125.024  0.316127   35228.199
  16127.435  0.313982   35017.199
  16130.019  0.323046   35043.199
  16132.431   0.3361121   34646.199
  16135.016  0.349501   34696.199
  16137.429  0.364269   34789.199
  16140.016  0.38328   34619.199
  16142.431  0.399493   34572.199
  16145.020  0.412365   34452.199
  16147.436  0.416074   34342.199
  16150.024   0.4125629   34202.199
  16152.443  0.404935   34110.199
  16155.034  0.392931   33980.199
  16156.418  0.385477   33932.176
  16157.800  0.377182   33914.105
  16159.356  0.368397   33885.984
  16160.913  0.361279   33785.816
  16162.642  0.355001   33827.598
  16164.372  0.348732   33754.332
  16166.275  0.342924    33658.02
  16168.179  0.338435   33824.656
  16170.084  0.334713    33699.25
  16172.160  0.334207   33648.789
  16174.412  0.336675   33677.285
  16176.665  0.341927    33903.73
  16178.917  0.347315   33969.129
  16181.345  0.353383   34474.477
  16183.772  0.356467   34641.777
  16186.374  0.358102   35094.031
  16188.977  0.358316   35265.238
  16191.755   0.3594772   35471.395
  16194.532  0.361088     35867.5
  16197.485  0.361302   35892.563
  16200.438  0.362577   36093.574
  16203.394  0.363595   36216.539
  16206.524  0.362103   36383.453
  16209.829  0.35922    36722.32
  16212.961  0.353073   36824.141
  16216.444  0.346975    37224.91
  16219.927  0.339269   37394.637
  16223.413   0.3333742   37503.309
  16226.900  0.33134   37829.938
  16230.563  0.330948   38284.516
  16234.401  0.330783   38565.047
  16238.242  0.332708   38940.527
  16242.084  0.334209   39206.961
  16246.104  0.336369   39445.348
  16250.300  0.339858   39745.684
  16254.323  0.342893   40158.973
  16258.698   0.3413128   40390.215
  16262.902  0.33647   40758.406
  16267.282  0.333867   41208.551
  16271.841  0.334628   41519.648
  16276.400  0.336517   41886.695
  16280.965   0.3376643   42241.695
  16285.705  0.336223   42376.648
  16290.450  0.333643   43188.551
  16295.373   0.3284545    43310.41
  16300.300  0.325465   43791.215
  16305.404  0.323103   44044.977
  16310.514  0.320506   44552.688
  16315.624  0.319384   44851.348
  16320.918   0.3207426   45354.965
  16326.212  0.324323   45816.531
  16331.687  0.327613   46227.047
  16337.165  0.328327    46626.52
  16342.827  0.326175   47053.941
  16348.490  0.322732   47495.313
  16354.333  0.319247   47922.641
  16360.007  0.316408   48308.918
  16366.036   0.3147769   48843.145
  16372.071   0.3136866   49191.328
  16378.111  0.314642   49619.461
  16384.156  0.316886   50093.543
  16390.383  0.315771   50631.578
  16396.791  0.312665   50925.566
  16403.207  0.310679   51184.508
  16409.627  0.306695   51657.398
  16416.230  0.306656   52133.242
  16422.840  0.308134   52207.039
  16429.455  0.309055   52981.785
  16436.254  0.308049   53217.484
  16443.236  0.306466   53590.137
  16450.049  0.304662   53946.738
  16457.223  0.302019   54521.293
  16464.227  0.300919   55205.801
  16471.412  0.299392   55395.258
  16478.787  0.297795   55780.668
  16485.988  0.295697   56127.027
  16493.557  0.295622   56470.344
  16500.949  0.29564   56884.609
  16508.533  0.294683   57324.824
  16516.301  0.2933   57721.992
  16523.898  0.29151   58165.113
  16531.865  0.29104   58420.188
  16539.656  0.290303   59036.211
  16547.639  0.289328   58957.188
  16555.809  0.287016   59347.117
  16563.986  0.285439   59497.996
  16572.176  0.284731   59747.828
  16580.371  0.283943   60284.609
  16588.756   0.2835798   60405.348
  16597.334  0.282304   60647.031
  16605.736  0.27993   61126.672
  16614.514  0.278143   61485.262
  16623.119  0.276667   61494.805
  16631.916  0.276092   61865.301
  16640.725  0.275763   62209.746
  16649.723  0.274613   62447.145
  16658.732  0.273765   62651.492
  16667.936   0.2730312   62838.793
  16676.965  0.270099   62899.047
  16686.375  0.26857   63554.254
  16695.609   0.2673127    63362.41
  16705.041  0.266317    63718.52
  16714.666  0.265868   63996.578
  16724.119  0.264464   63983.594
  16733.768  0.263302   64256.555
  16743.613  0.261639   64275.473
  16753.285  0.259636    64618.34
  16763.342  0.258341    64547.16
  16773.223  0.257737    65182.93
  16783.305  0.25601   64967.656
  16793.396  0.25482   65182.328
  16803.689  0.254005   65037.957
  16813.994   0.2529685   65050.535
  16824.313  0.251479   65342.066
  16834.832  0.250117   65630.547
  16845.363  0.248085   65614.984
  16855.910  0.246441   65715.367
  16866.658  0.244754   66076.703
  16877.420  0.24387   65884.992
  16888.385  0.24218   65946.234
  16899.174  0.240805    65993.43
  16910.170  0.239563   66112.578
  16921.367  0.239003   66423.672
  16932.580  0.238081   65905.719
  16943.809  0.236282   66150.719
  16955.055  0.234866   65931.672
  16966.504  0.233754   65625.578
  16977.969  0.23211    65976.43
  16989.643  0.232447   65497.242
  17001.332  0.23019       65758