File: data/Sr/SrO_10K_03.xdi
# XDI/1.0 EXAFS Data Collector 1.1 AD.RGN
# Column.1: energy eV
# Column.2: mutrans
# Column.3: murefer
# Column.4: i0
# Beamline.name: SSRL 4-3
# Detector.I0: N2 15cm
# Detector.I1: N2+Ar 30cm
# Detector.I2: Ar
# Element.edge: K
# Element.symbol: Sr
# Mono.d_spacing: 1.920128
# Mono.name: Si(220)
# Mono.notes: (?) unfocussed, detuned 50%, clockwise at E=17000eV
# Sample.formula: SrO
# Sample.name: strontium oxide
# Sample.prep: powder
# Sample.reference: SrCO3
# Sample.temperature: 10K
# Scan.start_time: 1995-06-16 02:32:00
# ///
#    Note: mono d_spacing is nominal!
#-------------
#   energy   mutrans        murefer      i0
  15699.933  0.998801  -1.12063   69966.703
  15719.844  0.996022  -1.12349   69206.703
  15740.136  0.992742   -1.126621   68445.703
  15760.152  0.991088  -1.12981   66772.703
  15779.891  0.986467  -1.13266   67148.703
  15800.011  0.983378  -1.13573   66318.703
  15819.854  0.980304  -1.13879   65632.703
  15840.076   0.9774199  -1.14193   64954.699
  15860.021  0.974552  -1.145   64238.699
  15880.018  0.971727  -1.14798   63523.699
  15900.063  0.968914   -1.151072   62807.699
  15920.164  0.96614  -1.15411   62181.699
  15939.978  0.963367  -1.15715   61414.699
  15959.844  0.96011  -1.16011   60590.699
  15980.097  0.958091  -1.16312   60009.699
  16000.064  0.955842   -1.166161   59328.699
  16020.082  0.952867  -1.16911   58615.699
  16040.152  0.950993  -1.17213   57897.699
  16059.933  0.949104   -1.175089   57222.699
  16080.104   0.9484318  -1.17799   56471.699
  16099.984  0.950753   -1.181006   55813.699
  16119.917  0.967358  -1.18387   54969.699
  16122.670  0.973171  -1.1842   55046.699
  16125.079  0.98122  -1.1845   55032.699
  16127.490  0.994307  -1.18497   54792.699
  16129.901   1.017  -1.18505   54822.699
  16132.657   1.08183  -1.18516   54724.699
  16135.069   1.2219  -1.18511   54695.699
  16137.483   1.42523  -1.18445   54601.699
  16139.897   1.5899  -1.18387   54495.699
  16142.657   1.78889  -1.18335   54402.699
  16145.073   1.99755    -1.18172   54303.699
  16147.490   2.05455  -1.18136   54281.699
  16149.907   1.95694  -1.18239   54194.699
  16152.670   1.85949  -1.18409   53990.699
  16155.090   1.8083  -1.18448    108071.4
  16156.473   1.78591  -1.18493   107896.25
  16157.854   1.76568  -1.18525   107820.79
  16159.237   1.74919  -1.18548   107888.02
  16160.968   1.72968  -1.1857   107873.95
  16162.695   1.7071    -1.18634   108028.56
  16164.426   1.68864  -1.18652   108107.87
  16166.157   1.68156  -1.18665   108303.87
  16168.234   1.68825  -1.18691   108128.58
  16170.311    1.700914  -1.18723   107988.97
  16172.388    1.716434  -1.18719   108380.05
  16174.466   1.73729  -1.18764   109558.83
  16176.545   1.765  -1.18764    110022.3
  16178.971   1.79923  -1.18774   110516.45
  16181.399   1.8282  -1.18795   110938.31
  16183.826   1.84365  -1.18834   111474.86
  16186.254   1.83845  -1.18861    112137.1
  16189.030   1.81132   -1.189283   112905.03
  16191.809   1.78873  -1.18976   113445.66
  16194.587   1.77999  -1.19001   114068.98
  16197.366   1.77438  -1.19068   114841.99
  16200.493   1.76285  -1.19126    115589.7
  16203.274   1.74714  -1.19163    116479.1
  16206.405   1.72934  -1.19227   117330.19
  16209.884   1.71973  -1.1928   118309.98
  16213.016   1.72055  -1.19294   119028.45
  16216.499   1.72308  -1.19351   119922.62
  16219.981   1.72337  -1.19388   121043.48
  16223.468   1.73114  -1.19452   121883.05
  16226.954   1.74566  -1.19503    122841.3
  16230.792   1.75759  -1.19549   123846.23
  16234.281   1.75489  -1.19593   124389.87
  16238.122   1.74799  -1.19656    124755.2
  16242.313   1.75387  -1.19693   125666.22
  16246.159    1.759467  -1.19747   127515.94
  16250.354   1.75154  -1.19807   130017.34
  16254.553   1.73486  -1.19892   132065.44
  16258.753   1.72076  -1.19949   133532.23
  16262.957   1.7116  -1.20025   134579.72
  16267.162   1.70874  -1.20065   135497.91
  16271.719   1.71098  -1.20144   136540.78
  16276.280   1.71298  -1.20199   138180.34
  16280.844   1.7136  -1.20253   140320.59
  16285.760   1.71651  -1.20334   142187.55
  16290.328   1.71934   -1.203953    143621.2
  16295.252   1.71603  -1.2047   145606.53
  16300.179   1.71741  -1.20535   147301.56
  16305.459   1.72417  -1.20608   149002.28
  16310.392   1.71747  -1.20662    150544.7
  16315.680    1.706125  -1.20733   152170.81
  16320.972   1.70204  -1.20802   153866.61
  16326.268   1.71004  -1.20875   155589.11
  16331.564   1.71626  -1.20957    157370.3
  16337.221   1.71378  -1.21028   159303.17
  16342.881   1.70633  -1.21113   160948.75
  16348.544   1.69786  -1.21191   162913.02
  16354.211   1.69131  -1.21271   164735.98
  16360.238   1.68408    -1.21351   166514.62
  16365.914   1.6816  -1.2142   168322.97
  16371.948   1.68985  -1.21525   170342.02
  16377.989   1.69708  -1.21583   172280.75
  16384.389   1.70162  -1.2168   174155.17
  16390.438   1.70322  -1.21762    176038.3
  16396.848    1.694985   -1.218478   177962.09
  16403.262   1.68275  -1.21953   179757.61
  16409.684   1.68019  -1.22025    181726.8
  16416.107    1.679565  -1.22121   183809.69
  16422.895   1.67401  -1.22211   185545.27
  16429.332   1.66957  -1.22315   187483.55
  16436.129   1.67298  -1.22422   189603.52
  16443.291    1.676309  -1.22511   191698.17
  16450.104   1.67865  -1.22578   193498.53
  16457.277   1.67693   -1.226872   195328.58
  16464.100   1.67496  -1.22777   197504.31
  16471.289   1.66628  -1.22886   199382.75
  16478.842   1.65974  -1.2299   201349.87
  16486.043   1.6584  -1.2309    203754.7
  16493.611   1.65564  -1.23198    205522.2
  16500.826   1.6575  -1.23286   207559.42
  16508.406   1.66492  -1.23412   209271.31
  16516.357   1.66584  -1.23514   211126.91
  16523.953    1.657943  -1.23641   213081.19
  16531.920   1.65272  -1.23733   214939.17
  16539.531   1.65015  -1.23832   216968.84
  16547.875   1.64225  -1.23945    219153.2
  16555.863   1.63925  -1.24032   220381.25
  16563.859   1.63979  -1.24121      222793
  16572.230   1.63993  -1.24246   224584.45
  16580.607    1.643135  -1.24332   226567.58
  16588.992   1.64287  -1.24426   227907.41
  16597.387   1.6367  -1.24536   229562.94
  16605.793   1.6315  -1.24658   230935.14
  16614.570   1.63111  -1.24752   233273.05
  16622.992   1.62968  -1.24842   234818.66
  16631.789   1.62414  -1.24953   236091.94
  16640.963    1.618334  -1.25074   238042.92
  16649.779   1.61633  -1.25199   239525.61
  16658.604   1.61706    -1.25306   241574.98
  16667.809   1.62053  -1.25405   243103.05
  16677.021   1.61858  -1.25532    244565.8
  16686.246    1.612115   -1.256405   245873.25
  16695.480   1.60702  -1.25753   247482.39
  16705.096   1.60498  -1.25911   248650.23
  16714.723   1.60251  -1.2594   249379.77
  16723.990   1.59714  -1.26057   251652.98
  16733.639   1.59642  -1.26169   252853.91
  16743.670   1.59739  -1.26301   254071.52
  16753.342    1.594501  -1.26439   254963.81
  16763.396   1.59073  -1.26533    256053.8
  16773.094   1.58913   -1.266498   257320.48
  16783.174    1.585211  -1.26789   258104.87
  16793.641   1.58106  -1.26944   258842.94
  16803.746   1.57779  -1.27062    259786.7
  16813.863   1.57596  -1.27141   260280.17
  16824.369   1.57293  -1.27278   261527.33
  16834.887   1.57208  -1.27395   262245.16
  16845.420    1.568101  -1.27502   262697.72
  16855.965   1.56515  -1.27644   263685.94
  16866.525   1.56493  -1.27754   264004.87
  16877.477   1.56225  -1.27901   264266.47
  16888.441   1.5574  -1.28052   264770.78
  16899.041   1.55333  -1.28208   265323.78
  16910.416   1.54871  -1.28319    265509.5
  16921.424   1.54831  -1.28437   266068.87
  16932.447   1.54704   -1.285458   266886.97
  16943.865   1.54303  -1.28701   267163.72
  16955.301   1.54032  -1.28835   267583.19
  16966.371    1.536409  -1.28955   267659.37
  16977.836   1.53466  -1.29116   267585.22
  16989.699   1.53161  -1.29265   266590.75
  17001.197   1.52938  -1.29471      266783