File: data/Sr/SrO_rt_02.xdi
# XDI/1.0 EXAFS Data Collector 1.1 AD.RGN
# Column.1: energy eV
# Column.2: mutrans
# Column.3: mufluor
# Column.4: murefer
# Column.5: i0
# Beamline.name: SSRL 4-3
# Detector.I0: N2 15cm
# Detector.I1: N2+Ar 30cm
# Detector.If: Ar   (Lytle detector, using Rb Filter)
# Detector.I2: Ar
# Element.edge: K
# Element.symbol: Sr
# Mono.d_spacing: 1.920128
# Mono.name: Si(220)
# Mono.notes: (?) unfocussed, detuned 50%, clockwise at E=17000eV
# Sample.formula: SrO
# Sample.name: strontium oxide
# Sample.prep: powder
# Sample.reference: SrCO3
# Sample.temperature: room temperature
# Scan.start_time: 1995-06-14 19:09:21
# ///
#    Note: mono d_spacing is nominal!
#-------------
#   energy   mutrans    mufluor     murefer      i0
  15699.933   -1.626806  0.378983   1.07781   197185.59
  15719.844  -1.63178  0.37301   1.07523   194723.59
  15740.136  -1.63685  0.365335   1.07258   191927.59
  15760.152  -1.64202  0.358373   1.07003   187114.59
  15779.891  -1.64676  0.348549    1.067543   187479.59
  15800.011  -1.65178   0.3408116   1.0649   184717.59
  15819.854  -1.65673  0.33273   1.06234   182273.59
  15840.076   -1.661688  0.325548   1.05973   180040.59
  15860.021  -1.66655  0.318105   1.05713   177359.59
  15880.018  -1.67145  0.311101   1.05459   175106.59
  15900.063   -1.676343   0.3054774   1.052   172804.59
  15920.164  -1.68118  0.300127   1.04945   170470.59
  15939.978  -1.6859   0.2958046   1.04685   168012.59
  15959.844  -1.69052  0.293082   1.04443   165345.59
  15980.097  -1.69515  0.291933   1.04178   163088.59
  16000.064  -1.69967  0.294126   1.03923   160743.59
  16020.082  -1.70396   0.2994034   1.03672   158197.59
  16040.152  -1.70799  0.309889   1.03424   155671.59
  16059.933  -1.71139  0.331367   1.03186   153376.59
  16080.104  -1.71368  0.372963   1.02953   150966.59
  16099.984  -1.71247   0.4679784   1.02754   148318.59
  16119.917  -1.69313  0.838919   1.02752   146241.59
  16122.670  -1.68578  0.956237   1.02796   145938.59
  16125.079  -1.67495    1.126243   1.02878   145705.59
  16127.490   -1.655988   1.41556    1.030579   145451.59
  16129.901  -1.61652   2.00196   1.03437   145089.59
  16132.657  -1.50385   3.562    1.046021   144983.59
  16135.069  -1.33368   5.5813   1.06539   144484.59
  16137.483    -1.12047   7.65516   1.09026   144285.59
  16139.897 -0.882391   9.63027   1.12141   144207.59
  16142.657 -0.619118   9.66421   1.15346   143668.59
  16145.073 -0.507805   9.68162   1.15803   143409.59
  16147.490 -0.549331   9.70268   1.1432   143098.59
  16149.907 -0.644607   9.72357    1.125354   142790.59
  16152.670 -0.724741   9.75309   1.11112   142358.59
  16155.090 -0.770424   9.76196    1.105596   284457.19
  16156.473 -0.793198   9.7646   1.10396   284449.06
  16157.854 -0.817908   9.76892   1.1028   284535.69
  16159.237 -0.842494   9.77854    1.102094   284467.06
  16160.968 -0.868208    9.601248   1.10227   284420.19
  16162.695 -0.882848   9.50703    1.103422   284453.06
  16164.426 -0.883599   9.5178   1.10544   284551.66
  16166.157 -0.874467   9.59968   1.10761   284488.03
  16168.234 -0.856365   9.74811   1.10978   284134.12
  16170.311 -0.836009   9.91822    1.111622      284772
  16172.388 -0.815323   9.94266   1.11399   285920.59
  16174.466 -0.794722   9.91599   1.11679   288056.94
  16176.545 -0.776796   9.92884   1.11901   289185.03
  16178.971 -0.760076   9.96721   1.12042   289736.87
  16181.399 -0.749308   9.99683   1.12046   290640.47
  16183.826 -0.746381   10.0148   1.11922   292013.81
  16186.254 -0.749685   10.0331   1.11746   293506.91
  16189.030 -0.757149   10.0806   1.11472   294274.75
  16191.809 -0.765788   10.099   1.11152   296019.34
  16194.587 -0.777723   10.1166   1.10869   297914.69
  16197.366 -0.794526   10.151   1.10643   299468.75
  16200.493 -0.816257   10.151   1.1044   301241.59
  16203.274 -0.832366   10.0395   1.10322   303368.16
  16206.405 -0.844541   9.96178     1.10286    304911.5
  16209.884  -0.8495874   9.93827    1.103601   307199.56
  16213.016 -0.848031   9.9666   1.10468   309408.37
  16216.499 -0.842233   10.0201   1.10539   311745.94
  16219.981 -0.834985   10.0922   1.1056   314013.28
  16223.468 -0.8278   10.1556   1.10533   315764.34
  16226.954 -0.821839   10.2167   1.105   317472.16
  16230.792 -0.818985   10.2428   1.10482   319043.72
  16234.281 -0.8206   10.2425   1.10471      320609
  16238.122 -0.8242   10.2376   1.10426   323333.06
  16242.313  -0.8276649   10.2341   1.10289   327029.87
  16246.159 -0.831625    10.22629   1.10117   331884.41
  16250.354 -0.836654   10.2097   1.09903   336470.72
  16254.553  -0.8424202   10.177   1.09845   340598.78
  16258.753  -0.8486454   10.1347   1.09727   343535.56
  16262.957 -0.85506   10.0965   1.09657   345709.09
  16267.162 -0.861531   10.0609   1.09599   348702.41
  16271.719 -0.868216    10.02866   1.09541   352062.44
  16276.280 -0.871406   10.0255   1.0951   356062.22
  16280.844  -0.8699348   10.0563   1.09497   359852.75
  16285.760 -0.866013     10.1075   1.09497   363414.03
  16290.328 -0.86343   10.1473   1.0945   367446.06
  16295.252 -0.862067    10.17499   1.09362   370700.84
  16300.179 -0.86074   10.2078   1.0927   373742.34
  16305.459 -0.861092   10.2233   1.09247   377537.62
  16310.392 -0.866015   10.2001   1.09202   381361.66
  16315.680 -0.872633   10.1709   1.0913   384573.41
  16320.972 -0.875558   10.1703   1.09038   388276.94
  16326.268 -0.876323   10.1869   1.08919   392338.19
  16331.564 -0.877098   10.2014   1.08822   396244.22
  16337.221 -0.878498   10.2159   1.08718   399933.97
  16342.881 -0.881367   10.217   1.08617   404513.47
  16348.544 -0.885874   10.2041   1.08524   407996.72
  16354.211 -0.890581    10.19157   1.08473   412203.72
  16360.238 -0.89451   10.1862   1.08448   415524.47
  16365.914 -0.896471   10.1951   1.08409   419684.97
  16371.948 -0.896519   10.2178    1.083374   423710.22
  16377.989 -0.896752   10.2378   1.08244   427766.22
  16384.389 -0.898242   10.2547   1.08127   431923.97
  16390.438 -0.899824   10.2674   1.08023   435271.44
  16396.848 -0.901939   10.2787   1.07924   439786.69
  16403.262 -0.905001   10.2806   1.07833   443480.66
  16409.684 -0.909108   10.2743     1.07759   447628.41
  16416.107  -0.9135051   10.2645   1.07679   451720.87
  16422.895 -0.917505   10.262   1.07584   454760.09
  16429.332  -0.9197569   10.2688   1.07474   459050.09
  16436.129 -0.92135   10.2861   1.07368   463291.81
  16443.291 -0.923051   10.3028   1.07274   467047.28
  16450.104 -0.924994   10.3135   1.07192    470718.5
  16457.277 -0.927185   10.3239   1.07118   474863.47
  16464.100 -0.92993   10.3313   1.07042   478800.19
  16471.289 -0.933234   10.3349   1.06949   483166.66
  16478.842 -0.936512   10.3396   1.06837   486406.84
  16486.043 -0.939095   10.3519   1.06737   488536.81
  16493.611 -0.941239   10.3648   1.06633    493108.5
  16500.826 -0.942891    10.37897   1.06533   497395.97
  16508.406 -0.94494   10.395    1.064364   500810.16
  16516.357 -0.947809   10.4042   1.06326   503217.12
  16523.953 -0.950956   10.4075    1.062316   507880.81
  16531.920 -0.954618   10.4106   1.06131   510969.25
  16539.531 -0.957868    10.41651   1.06036   514514.44
  16547.875 -0.961017   10.4273   1.05925   517238.41
  16555.863 -0.963848   10.4362   1.05816   519790.09
  16563.859 -0.96658   10.4463    1.057105    524362.5
  16572.230 -0.969207   10.4594   1.0561   527047.69
  16580.607 -0.971728    10.47534   1.05493   529699.62
  16588.992 -0.974535    10.48538   1.05381   531796.31
  16597.387  -0.9775933   10.4924   1.0527   534463.75
  16605.793 -0.980818   10.4995   1.05168   536513.94
  16614.570 -0.984111   10.5116   1.05061   540268.81
  16622.992 -0.98715   10.5207   1.04951    542046.5
  16631.789 -0.990349   10.5291   1.04835   544945.94
  16640.963 -0.99375   10.5371   1.0471   547659.06
  16649.779 -0.996825   10.5484   1.0459      549740
  16658.604 -0.999839   10.5615   1.04473   551715.69
  16667.809  -1.00299   10.5683   1.04364   553985.06
  16677.021  -1.00641   10.5789   1.04243   554282.25
  16686.246   -1.009856   10.5868   1.04132   556757.12
  16695.480  -1.01325   10.5979   1.04015   557013.81
  16705.096  -1.01665   10.6069   1.03894   558399.19
  16714.723  -1.02008    10.61896   1.03766   559775.31
  16723.990  -1.02314   10.6273   1.03653   561447.25
  16733.639  -1.02638   10.6412   1.03529   562602.87
  16743.670  -1.02978   10.6504    1.034038   563342.25
  16753.342  -1.03304   10.6622   1.0329   564999.44
  16763.396  -1.03657   10.6729   1.03159   566173.31
  16773.094  -1.03997   10.6832   1.03037   566676.94
  16783.174  -1.04349   10.6935   1.02908   566703.31
  16793.641  -1.04709   10.705    1.027821   566588.44
  16803.746  -1.05054   10.7132    1.026615   566596.31
  16813.863  -1.05353   10.7208   1.02544   563734.94
  16824.369  -1.05728   10.7387   1.02414   568114.31
  16834.887  -1.06071   10.7479   1.02283   568029.44
  16845.420   -1.064243   10.7602     1.02158   566770.31
  16855.965  -1.06767   10.7701   1.02031   566440.94
  16866.525  -1.07116   10.7824   1.01915   566299.31
  16877.477  -1.07486   10.7969   1.01788   565665.37
  16888.441  -1.07849   10.8066   1.01653   564796.25
  16899.041  -1.08195   10.8169   1.01532   563644.87
  16910.416  -1.08562   10.8297   1.01397   562151.25
  16921.424  -1.08919   10.8395   1.0126   560492.31
  16932.447  -1.09279   10.8499   1.01139   559428.19
  16943.865   -1.096507    10.86186   1.01004   557780.81
  16955.301  -1.10023   10.8743   1.0088   554988.12
  16966.371  -1.10375    10.88515   1.0075   554427.25
  16977.836  -1.10748   10.8964   1.00618   553912.06
  16989.699  -1.11121    10.90617   1.00488   549739.69
  17001.197  -1.11477   10.9204   1.00358      546437