File: data/Sr/SrO_10K_01.xdi
# XDI/1.0 EXAFS Data Collector 1.1 AD.RGN
# Column.1: energy eV
# Column.2: mutrans
# Column.3: murefer
# Column.4: i0
# Beamline.name: SSRL 4-3
# Detector.I0: N2 15cm
# Detector.I1: N2+Ar 30cm
# Detector.I2: Ar
# Element.edge: K
# Element.symbol: Sr
# Mono.d_spacing: 1.920128
# Mono.name: Si(220)
# Mono.notes: (?) unfocussed, detuned 50%, clockwise at E=17000eV
# Sample.formula: SrO
# Sample.name: strontium oxide
# Sample.prep: powder
# Sample.reference: SrCO3
# Sample.temperature: 10K
# Scan.start_time: 1995-06-16 02:32:00
# ///
#    Note: mono d_spacing is nominal!
#-------------
#   energy   mutrans        murefer      i0
  15699.933  0.990044  -1.1264   76951.703
  15719.844  0.987637   -1.128729   76084.703
  15740.136  0.984656   -1.131356   75282.703
  15760.152  0.983187  -1.13405   73386.703
  15779.891  0.978795  -1.13668   73900.703
  15800.011  0.975745  -1.13939   73147.703
  15819.854  0.972819  -1.14228   72510.703
  15840.076  0.969977  -1.14494   71716.703
  15860.021  0.967215  -1.14792   71042.703
  15880.018  0.9645  -1.15076   70406.703
  15900.063  0.961732  -1.15354   69785.703
  15920.164  0.958971  -1.15656   69149.703
  15939.978  0.956151  -1.15936   68486.703
  15959.844  0.952958  -1.16226   67749.703
  15980.097  0.950974  -1.16531   67198.703
  16000.064  0.94872  -1.16798   66569.703
  16020.082  0.945833  -1.17094   66014.703
  16040.152  0.944132  -1.17376   65308.699
  16059.933  0.942293  -1.17664   64721.699
  16080.104  0.941731  -1.17976   64041.699
  16099.984  0.94407  -1.18267   63407.699
  16119.917  0.96097  -1.18553   62744.699
  16122.670  0.966924  -1.18589   62761.699
  16125.079  0.974908  -1.18586   62779.699
  16127.490  0.988247  -1.18644   62671.699
  16129.901   1.01163  -1.18657   62677.699
  16132.657   1.07855  -1.18719   62481.699
  16135.069   1.22222  -1.18711   62592.699
  16137.483   1.42549  -1.1866   62573.699
  16139.897   1.58887  -1.18626   62516.699
  16142.657    1.790373  -1.18614   62344.699
  16145.073   1.9971  -1.18535   62265.699
  16147.490   2.04507  -1.18486   62248.699
  16149.907   1.94603   -1.185726   62154.699
  16152.670   1.85017  -1.1866   62115.699
  16155.090   1.79956  -1.187    124098.4
  16156.473   1.7773  -1.18715   123991.25
  16157.854   1.75754  -1.18753   123986.79
  16159.237   1.7411  -1.18787   124056.02
  16160.968    1.721417  -1.18807   123992.95
  16162.695   1.69892  -1.18849   124137.56
  16164.426   1.68112  -1.18882   124379.87
  16166.157    1.674949  -1.18927   124582.87
  16168.234   1.68223  -1.18946   124531.58
  16170.311   1.69485  -1.18968   124457.97
  16172.388    1.710872  -1.18971   124917.05
  16174.466   1.73211  -1.18989   126120.83
  16176.545   1.75985  -1.18995    126502.3
  16178.971   1.79417  -1.19015   126931.45
  16181.399   1.82275  -1.19054   127429.31
  16183.826   1.83695  -1.19052   128212.86
  16186.254   1.83049  -1.19088    128855.1
  16189.030   1.80317  -1.19136   129467.03
  16191.809   1.7811  -1.19181   130279.66
  16194.587    1.772886  -1.19217   131018.98
  16197.366   1.76709  -1.19259      131716
  16200.493   1.75507   -1.192999    132640.7
  16203.274   1.73953  -1.19357   133477.09
  16206.405   1.722  -1.19402   134535.19
  16209.884    1.712795  -1.19451   135361.97
  16213.016   1.71413  -1.19492   136265.45
  16216.499   1.71633  -1.19534   137316.62
  16219.981   1.71698  -1.19583   138317.48
  16223.468   1.72507  -1.19616   139308.05
  16226.954   1.73987  -1.19671    140453.3
  16230.792    1.751564  -1.19737   141367.23
  16234.281   1.74894   -1.198032   141891.87
  16238.122   1.74205  -1.19856    142491.2
  16242.313    1.747472  -1.19918   143508.22
  16246.159   1.75246  -1.19965   145443.94
  16250.354   1.7444  -1.20021   148234.34
  16254.553   1.72821  -1.20095   150338.44
  16258.753   1.71434  -1.20166   151996.23
  16262.957     1.70479   -1.202114   153175.72
  16267.162   1.70241    -1.20296   154023.91
  16271.719   1.70492   -1.203529   155019.78
  16276.280    1.707225  -1.204   156961.34
  16280.844    1.707999  -1.20468   159362.59
  16285.760   1.71056  -1.20534   161369.55
  16290.328   1.71337  -1.20618    162759.2
  16295.252   1.71081  -1.20688   164337.53
  16300.179    1.713029  -1.2079   166012.56
  16305.459   1.71963  -1.20846   167675.28
  16310.392   1.71296  -1.20931    169442.7
  16315.680   1.70137  -1.20996   171423.81
  16320.972   1.69774  -1.21083   173195.61
  16326.268   1.70587  -1.21141   175066.11
  16331.564   1.71158  -1.21208    176827.3
  16337.221   1.70901  -1.21291   178700.17
  16342.881   1.70157  -1.21372   180447.75
  16348.544    1.693063  -1.21455   182535.02
  16354.211   1.6864   -1.215238   184696.98
  16360.238    1.679183  -1.21601   186411.62
  16365.914    1.676707  -1.21674   188203.97
  16371.948   1.68508  -1.21743   190149.02
  16377.989   1.69227  -1.21824   192215.75
  16384.389   1.69656  -1.21906   194452.17
  16390.438    1.698083  -1.21979    196395.3
  16396.848   1.68951  -1.2207   198262.09
  16403.262   1.67743  -1.22155   200227.61
  16409.684   1.6752  -1.22257    202405.8
  16416.107   1.67411   -1.223539   204690.69
  16422.895   1.66836  -1.2244   206408.27
  16429.332   1.66415  -1.22522   208402.55
  16436.129   1.66746  -1.22622   210607.52
  16443.291   1.67082  -1.22705   212802.17
  16450.104   1.67324  -1.22783   214763.53
  16457.277   1.66993  -1.22805   216349.58
  16464.100   1.66756  -1.22882   218401.31
  16471.289   1.65897  -1.23028   220517.75
  16478.842   1.65203  -1.23075   222630.87
  16486.043   1.65124  -1.23196    224082.7
  16493.611   1.64794  -1.23288    226320.2
  16500.826   1.64968   -1.233747   228992.42
  16508.406   1.65702   -1.234765   230807.31
  16516.357   1.65755  -1.23584   232760.91
  16523.953   1.64948  -1.23686   234699.19
  16531.920   1.64431  -1.23786   236412.17
  16539.531   1.64192   -1.238904   238338.84
  16547.875   1.63437  -1.23991    240233.2
  16555.863   1.63187  -1.24111   241801.25
  16563.859   1.63208  -1.24205      244077
  16572.230   1.63227   -1.243162   245920.45
  16580.607   1.63562  -1.24416   247762.58
  16588.992   1.63547  -1.24525   249285.41
  16597.387   1.62977  -1.24696   251102.94
  16605.793   1.62471  -1.24815   252418.14
  16614.570    1.624652  -1.24944   254942.05
  16622.992   1.62331  -1.25049   256446.66
  16631.789    1.617827  -1.25166   257608.94
  16640.963   1.61179  -1.25284   259344.92
  16649.779   1.60957  -1.25376   260860.61
  16658.604   1.61041  -1.2548   262536.97
  16667.809    1.614041  -1.25594   263702.03
  16677.021   1.61214  -1.25726   265265.81
  16686.246   1.60566  -1.25859   266647.25
  16695.480   1.60056  -1.25948   268174.41
  16705.096   1.59843  -1.26072   269394.22
  16714.723   1.5972  -1.26191   269862.75
  16723.990   1.59205  -1.26301   271961.97
  16733.639   1.59163  -1.26432   272864.91
  16743.670   1.59279  -1.26533    274136.5
  16753.342   1.58967  -1.26662   275421.81
  16763.396   1.58661  -1.26793   276103.81
  16773.094   1.58537  -1.26923    277197.5
  16783.174    1.581003  -1.27032   278418.87
  16793.641   1.57688  -1.27165   278555.94
  16803.746   1.57407  -1.27288   279994.72
  16813.863   1.57237  -1.27398   280089.16
  16824.369   1.5695  -1.27539   281488.31
  16834.887   1.56892  -1.27642   281788.16
  16845.420   1.56515    -1.27752   282964.72
  16855.965   1.56197  -1.27858   283304.94
  16866.525   1.56228  -1.28016   283531.87
  16877.477   1.55965  -1.28163   283980.47
  16888.441   1.5544  -1.28293   283953.78
  16899.041   1.55022  -1.28421   284837.78
  16910.416   1.5457  -1.28548    285151.5
  16921.424   1.54523  -1.28666   285349.87
  16932.447     1.54445  -1.28775   285283.97
  16943.865   1.54078  -1.28934   285506.72
  16955.301   1.53849  -1.29072   285659.19
  16966.371   1.53395  -1.29106   285815.37
  16977.836   1.532  -1.29238   285588.22
  16989.699   1.52895  -1.29389   284928.75
  17001.197   1.52618  -1.29542      285264