File: data/Sr/SrO_rt_03.xdi
# XDI/1.0 EXAFS Data Collector 1.1 AD.RGN
# Column.1: energy eV
# Column.2: mutrans
# Column.3: mufluor
# Column.4: murefer
# Column.5: i0
# Beamline.name: SSRL 4-3
# Detector.I0: N2 15cm
# Detector.I1: N2+Ar 30cm
# Detector.If: Ar   (Lytle detector, using Rb Filter)
# Detector.I2: Ar
# Element.edge: K
# Element.symbol: Sr
# Mono.d_spacing: 1.920128
# Mono.name: Si(220)
# Mono.notes: (?) unfocussed, detuned 50%, clockwise at E=17000eV
# Sample.formula: SrO
# Sample.name: strontium oxide
# Sample.prep: powder
# Sample.reference: SrCO3
# Sample.temperature: room temperature
# Scan.start_time: 1995-06-14 19:09:21
# ///
#    Note: mono d_spacing is nominal!
#-------------
#   energy   mutrans    mufluor     murefer      i0
  15699.933  -1.62658  0.376403   1.07704   189607.59
  15719.844  -1.63157  0.369719   1.0745   186914.59
  15740.136  -1.6367  0.362784   1.07179   184445.59
  15760.152  -1.6418  0.355745   1.06915   179622.59
  15779.891  -1.64663  0.347562   1.06661   179846.59
  15800.011  -1.65176  0.339205   1.06392   177570.59
  15819.854  -1.65668   0.3316546   1.0614   175112.59
  15840.076  -1.66175  0.323672   1.05876   172686.59
  15860.021  -1.66661  0.316327   1.05616   170323.59
  15880.018  -1.6715   0.3096701   1.05355   167797.59
  15900.063   -1.676339  0.303915   1.05097   165516.59
  15920.164  -1.68122  0.298395   1.04841   163246.59
  15939.978  -1.68595  0.294869   1.04585   160772.59
  15959.844  -1.69058  0.292472   1.04331   158414.59
  15980.097   -1.695265  0.29131   1.04074   155991.59
  16000.064  -1.69975  0.292535   1.03824   153680.59
  16020.082  -1.70405  0.29813   1.03575   151349.59
  16040.152  -1.70812  0.309721   1.03324   148872.59
  16059.933  -1.71156  0.329725   1.0308   146597.59
  16080.104  -1.71383  0.371646   1.02846   144365.59
  16099.984  -1.71263  0.467365   1.02648   141869.59
  16119.917  -1.69342  0.834847   1.02641   139650.59
  16122.670   -1.686195  0.954149   1.02689   139509.59
  16125.079  -1.67552   1.12143   1.02782   139339.59
  16127.490  -1.65677   1.40765   1.0295   138660.59
  16129.901  -1.61803   1.98508   1.03321   138595.59
  16132.657  -1.5066   3.52955   1.04462   138054.59
  16135.069  -1.33839   5.53097   1.06377   138040.59
  16137.483  -1.12475   7.61751   1.08851   137981.59
  16139.897 -0.887397   9.60224   1.11981   137679.59
  16142.657 -0.621968   10.114   1.15219   137281.59
  16145.073 -0.507555   10.1198   1.15727   137202.59
  16147.490 -0.546231   10.1374   1.14273   136964.59
  16149.907 -0.642253   10.1767   1.12475   136435.59
  16152.670 -0.723585    10.20591   1.11032   136044.59
  16155.090 -0.769295    10.22813   1.10465   271568.19
  16156.473 -0.792205   10.1566   1.10305   271047.06
  16157.854 -0.816906    9.971855   1.10184   271118.69
  16159.237  -0.8413709   9.79098   1.10114   270787.06
  16160.968 -0.867485   9.60043   1.10116   270996.19
  16162.695  -0.8825015   9.50202   1.10241   271432.06
  16164.426 -0.883709   9.51338   1.10442   271482.66
  16166.157  -0.8747761   9.59272   1.10655   271311.03
  16168.234 -0.856749   9.74358   1.1087   270710.12
  16170.311 -0.836405   9.91483   1.11058      271313
  16172.388 -0.81558   10.0763   1.11305   272922.59
  16174.466 -0.795127   10.2276   1.11584   274694.94
  16176.545 -0.777108   10.3609   1.11801   275393.03
  16178.971 -0.76021   10.4712   1.11952   275931.87
  16181.399 -0.749269     10.4894   1.11956   277093.47
  16183.826 -0.746196   10.494   1.11826   278752.81
  16186.254 -0.749361   10.5318   1.11654   279746.91
  16189.030 -0.756797   10.5445   1.11388   281201.75
  16191.809 -0.765423   10.497   1.11068   282612.34
  16194.587 -0.77738     10.4198   1.10781   283714.69
  16197.366 -0.794212   10.3054   1.10552   285632.75
  16200.493 -0.815685   10.1528    1.103463   287511.59
  16203.274 -0.832036   10.0419   1.10221   288865.16
  16206.405 -0.844389   9.95949   1.10185    290962.5
  16209.884 -0.849567   9.93559   1.10263   292448.56
  16213.016 -0.848045   9.96087   1.10364   294823.37
  16216.499 -0.84231   10.0165    1.104399   296574.94
  16219.981 -0.834993   10.0866   1.10457   298967.28
  16223.468   -0.827806   10.1535   1.10441   300931.34
  16226.954 -0.821823   10.2034   1.10401   302349.16
  16230.792 -0.81887   10.2371   1.10388   303322.72
  16234.281 -0.820446   10.2397   1.10375      305298
  16238.122 -0.823995   10.2311   1.10328   307700.06
  16242.313 -0.827474   10.2278   1.10195   311690.87
  16246.159  -0.8314452   10.2198   1.10025   315321.41
  16250.354  -0.8364536   10.2014   1.09903   320120.72
  16254.553 -0.842133   10.1708   1.09727   323475.78
  16258.753 -0.848408   10.1289   1.09627   327001.56
  16262.957 -0.854881   10.0922   1.09555   328991.09
  16267.162 -0.861415   10.0611   1.09498   331738.41
  16271.719 -0.868026   10.0313   1.09449   334576.44
  16276.280 -0.871289   10.0255   1.09406   338661.22
  16280.844 -0.869832   10.0595   1.09396   342288.75
  16285.760 -0.865908   10.1082   1.09401   346260.03
  16290.328 -0.863297   10.1452   1.09355   349553.06
  16295.252 -0.861932   10.1776   1.09258   352381.84
  16300.179 -0.860586   10.2081   1.09175   355636.34
  16305.459 -0.860892    10.22548   1.09143   359862.62
  16310.392 -0.865681    10.20685   1.09099   363953.66
  16315.680 -0.872264   10.1791   1.09024   366963.41
  16320.972 -0.87529   10.1769   1.08943   370746.94
  16326.268 -0.876072   10.193   1.08822   374598.19
  16331.564 -0.876784   10.2099   1.08714   378168.22
  16337.221 -0.878162    10.22164   1.08615   381392.97
  16342.881 -0.881103   10.2239   1.08513   385086.47
  16348.544 -0.885632   10.2117   1.08422   388391.72
  16354.211 -0.890286   10.1931   1.08367   392567.72
  16360.238 -0.894255   10.1897   1.08333   396166.47
  16365.914  -0.8961444   10.1972   1.08299   398917.97
  16371.948 -0.896257   10.2219    1.082334   402630.22
  16377.989 -0.896499   10.2449   1.08138   406199.22
  16384.389 -0.897964     10.2631   1.08022   409325.97
  16390.438 -0.89945   10.2746   1.07924   414492.44
  16396.848 -0.90158   10.286   1.07823   417413.69
  16403.262 -0.904645   10.2861   1.07734   421114.66
  16409.684 -0.908785   10.2809   1.07661   424869.41
  16416.107 -0.913193   10.271   1.07577   428407.87
  16422.895 -0.917132   10.2672   1.07482   432006.09
  16429.332 -0.919366   10.2781   1.07384   436209.09
  16436.129 -0.920979   10.2895   1.07279   439572.81
  16443.291 -0.922571   10.3104    1.071785   442338.28
  16450.104 -0.924462   10.3177   1.07107    445671.5
  16457.277 -0.926757   10.3293   1.07035   449140.47
  16464.100  -0.9294358   10.337   1.06951   453218.19
  16471.289 -0.932826   10.3394   1.0686   456682.66
  16478.842 -0.936026   10.3441   1.06751   460796.84
  16486.043  -0.9385459   10.3521   1.06647   464618.81
  16493.611 -0.940725   10.3659   1.0654    467647.5
  16500.826 -0.942382   10.3803   1.06447   471652.97
  16508.406  -0.9444266   10.3987   1.06347   474757.16
  16516.357 -0.947286    10.40906   1.0624   477914.12
  16523.953 -0.95046   10.4118   1.06139   480752.81
  16531.920 -0.954062   10.4162   1.06045   483244.25
  16539.531 -0.957273   10.4207   1.05957   487195.44
  16547.875 -0.96039   10.428   1.05839   489909.41
  16555.863 -0.963246   10.438   1.0573   492246.09
  16563.859 -0.965944    10.44928   1.0564   496463.53
  16572.230 -0.968622   10.4624   1.05528   498086.69
  16580.607 -0.971125   10.477   1.05413   500923.62
  16588.992  -0.9739869   10.4868   1.05304   504225.31
  16597.387 -0.977084   10.4941   1.05192   506350.75
  16605.793 -0.980304   10.5032    1.050795   508323.91
  16614.570 -0.983606   10.5098    1.049731   512025.84
  16622.992 -0.986715   10.5211   1.04869    512967.5
  16631.789 -0.989967   10.5323   1.04753   514603.94
  16640.963 -0.993311    10.53964   1.04632   517443.09
  16649.779 -0.996396   10.5512   1.04516      518768
  16658.604 -0.99935    10.56284   1.04408   521190.66
  16667.809  -1.00253   10.5705   1.04286   523403.06
  16677.021  -1.00596   10.5838   1.04174   525267.25
  16686.246  -1.00945   10.5903   1.04054   527448.12
  16695.480  -1.01282   10.5987   1.03945   528939.81
  16705.096  -1.01625   10.6087   1.0382   529544.19
  16714.723  -1.01969   10.6219   1.03689   530331.31
  16723.990  -1.02277   10.6313   1.03581   532387.25
  16733.639  -1.02609   10.6438   1.03461   532951.87
  16743.670  -1.02941    10.65641   1.03336   533507.25
  16753.342  -1.03268   10.665   1.03224   534546.44
  16763.396  -1.03624    10.67817   1.03097   534256.31
  16773.094  -1.03965   10.6885   1.02977   535312.94
  16783.174  -1.04318    10.69964   1.02849   535860.31
  16793.641  -1.04684   10.7082   1.02713   535328.44
  16803.746  -1.05025    10.72173    1.025903   535466.31
  16813.863  -1.05327   10.7302    1.024835   532337.94
  16824.369  -1.05709   10.7419   1.02343   536292.31
  16834.887  -1.06053   10.7576   1.0222   536308.44
  16845.420  -1.06401   10.7658    1.020929   535539.31
  16855.965  -1.06751   10.7781   1.01973   535697.94
  16866.525  -1.07097   10.7876   1.01846   535033.31
  16877.477  -1.07473   10.8017   1.01721   534146.37
  16888.441  -1.07821   10.8092    1.015874   534040.25
  16899.041  -1.0817   10.8207   1.01457   533100.87
  16910.416  -1.08531   10.8337   1.01319   532109.25
  16921.424  -1.08883   10.8439   1.01202   529481.31
  16932.447   -1.092416   10.8579   1.01069   528835.19
  16943.865  -1.09609   10.8669    1.009472   528918.81
  16955.301  -1.09975   10.8807   1.00817   526622.12
  16966.371  -1.10322   10.8865   1.00685   524988.25
  16977.836  -1.10693    10.90197   1.00563   523232.06
  16989.699  -1.11057   10.9124   1.00418   519387.66
  17001.197  -1.11415   10.9231   1.00297      518412