File: data/Sr/SrO_10K_02.xdi
# XDI/1.0 EXAFS Data Collector 1.1 AD.RGN
# Column.1: energy eV
# Column.2: mutrans
# Column.3: murefer
# Column.4: i0
# Beamline.name: SSRL 4-3
# Detector.I0: N2 15cm
# Detector.I1: N2+Ar 30cm
# Detector.I2: Ar
# Element.edge: K
# Element.symbol: Sr
# Mono.d_spacing: 1.920128
# Mono.name: Si(220)
# Mono.notes: (?) unfocussed, detuned 50%, clockwise at E=17000eV
# Sample.formula: SrO
# Sample.name: strontium oxide
# Sample.prep: powder
# Sample.reference: SrCO3
# Sample.temperature: 10K
# Scan.start_time: 1995-06-16 02:32:00
# ///
#    Note: mono d_spacing is nominal!
#-------------
#   energy   mutrans        murefer      i0
  15699.933  0.994143  -1.12128   71919.703
  15719.844   0.9912779  -1.12438   71177.703
  15740.136  0.988164  -1.12731   70405.703
  15760.152  0.986352  -1.13029   68666.703
  15779.891  0.981948  -1.13327   69029.703
  15800.011    0.978867  -1.13629   68303.703
  15819.854  0.975877   -1.139243   67579.703
  15840.076  0.972972  -1.14228   66830.703
  15860.021  0.970064  -1.14536   66074.703
  15880.018  0.96721  -1.1483   65428.699
  15900.063   0.9644614  -1.15144   64666.699
  15920.164  0.96165  -1.15446   63922.699
  15939.978  0.95892  -1.15739   63299.699
  15959.844  0.955665  -1.16035   62490.699
  15980.097  0.953567  -1.16343   61770.699
  16000.064   0.9513103  -1.16639   61144.699
  16020.082  0.948407  -1.16931   60453.699
  16040.152  0.94659  -1.17235   59681.699
  16059.933   0.9447166  -1.17531   59006.699
  16080.104  0.944004  -1.17833   58306.699
  16099.984  0.946426  -1.18128   57592.699
  16119.917  0.963224  -1.18399   56854.699
  16122.670  0.96921  -1.18451   56771.699
  16125.079  0.977205  -1.18462   56783.699
  16127.490  0.990563  -1.18495   56658.699
  16129.901    1.013896  -1.18505   56554.699
  16132.657   1.08141  -1.18546   56476.699
  16135.069   1.22548  -1.18529   56434.699
  16137.483   1.42928  -1.18461   56326.699
  16139.897   1.59295  -1.18387   56245.699
  16142.657   1.79436  -1.18332   56126.699
  16145.073   2.00093  -1.18183   56003.699
  16147.490   2.04804  -1.18135   55944.699
  16149.907    1.949183  -1.18299   55791.699
  16152.670   1.85317  -1.18394   55711.699
  16155.090   1.80263  -1.18439    111354.4
  16156.473   1.78033  -1.18477   111175.25
  16157.854   1.76062  -1.18521   111138.79
  16159.237   1.74425  -1.18528   111190.02
  16160.968   1.72413  -1.18569   111319.95
  16162.695   1.70176   -1.186097   111483.56
  16164.426   1.68393  -1.18649   111526.87
  16166.157   1.6776   -1.186734   111627.87
  16168.234   1.68478   -1.186985   111603.58
  16170.311   1.69746  -1.18734   111558.97
  16172.388   1.71338  -1.18756   111994.05
  16174.466   1.73486  -1.18798   113028.83
  16176.545   1.76263  -1.18805    113439.3
  16178.971   1.79684  -1.18787   113937.45
  16181.399   1.82526  -1.18824   114385.31
  16183.826   1.83998  -1.18848   114995.86
  16186.254   1.83382  -1.18874    115643.1
  16189.030   1.80639  -1.18933   116314.03
  16191.809   1.78425   -1.189902   116993.66
  16194.587   1.77586  -1.19017   117802.98
  16197.366   1.77  -1.1906   118466.99
  16200.493   1.75811  -1.19118    119330.7
  16203.274   1.74242  -1.19166    120117.1
  16206.405   1.72478  -1.19216   121112.19
  16209.884   1.71539  -1.19267   121954.98
  16213.016   1.71665  -1.19301   122872.45
  16216.499   1.71897  -1.19353   123872.62
  16219.981   1.71948   -1.193949   124865.48
  16223.468   1.72759  -1.19445   125750.05
  16226.954   1.74224  -1.19503    126928.3
  16230.792   1.75375  -1.19542   127680.23
  16234.281    1.750598  -1.19575   128365.87
  16238.122   1.74384  -1.19641    128882.2
  16242.313   1.74985  -1.19691   129920.22
  16246.159   1.75509  -1.19723   131683.94
  16250.354   1.74677  -1.19777   134212.34
  16254.553   1.7302  -1.19851   136393.44
  16258.753   1.71637  -1.19929   137815.23
  16262.957   1.70723  -1.19994   138690.72
  16267.162    1.704647  -1.20064   139739.91
  16271.719   1.70693  -1.20111   140707.78
  16276.280   1.70897  -1.20184   142372.34
  16280.844   1.70965    -1.20236   144619.59
  16285.760   1.71238  -1.20302   146528.55
  16290.328   1.71517  -1.20372    148053.2
  16295.252   1.71213  -1.20441   149716.53
  16300.179   1.71396  -1.20518   151445.56
  16305.459   1.72056  -1.20589   152990.28
  16310.392   1.71379  -1.20661    154825.7
  16315.680   1.70234  -1.20737   156390.81
  16320.972   1.69853  -1.20806   158061.61
  16326.268   1.70661  -1.20864   160015.11
  16331.564    1.712592  -1.20939    161678.3
  16337.221   1.7102  -1.2103   163661.17
  16342.881   1.70277  -1.21107   165530.75
  16348.544   1.69425  -1.21187   167252.02
  16354.211   1.68774   -1.212802   169127.98
  16360.238   1.68041  -1.21356   171020.62
  16365.914   1.67817  -1.2145   172856.97
  16371.948   1.68636  -1.21533   174743.02
  16377.989   1.69351  -1.21578   176697.75
  16384.389   1.69795  -1.21657   178558.17
  16390.438   1.69966  -1.21752    180589.3
  16396.848   1.69114  -1.21832   182613.09
  16403.262    1.679163  -1.21933   184351.61
  16409.684   1.67666  -1.22014    186348.8
  16416.107   1.67595  -1.22106   188234.69
  16422.895   1.67047  -1.22221   190172.27
  16429.332    1.666212  -1.22304   192279.55
  16436.129   1.66949  -1.224   194354.52
  16443.291   1.67304  -1.22494   196139.17
  16450.104    1.675583  -1.22602   198061.53
  16457.277   1.67346  -1.22678   200067.58
  16464.100   1.67137  -1.22763   202164.31
  16471.289   1.66257  -1.22873   204217.75
  16478.842   1.65618  -1.22975   206161.87
  16486.043   1.655  -1.23073    208295.7
  16493.611   1.65211  -1.23163    210265.2
  16500.826   1.65413  -1.23268   211939.42
  16508.406   1.66133  -1.2335   214126.31
  16516.357   1.66196  -1.23443   215768.91
  16523.953   1.65404  -1.23557   217506.19
  16531.920   1.64904  -1.23662   219431.17
  16539.531   1.64659   -1.237688   221214.84
  16547.875   1.63862  -1.23871    223559.2
  16555.863   1.63607  -1.23969   225072.25
  16563.859   1.63648  -1.24087      227296
  16572.230   1.63656  -1.24199   229315.45
  16580.607   1.64007  -1.24297   230962.58
  16588.992   1.64011  -1.24421   232400.41
  16597.387   1.63373   -1.245232   234107.94
  16605.793    1.628552  -1.24615   235510.14
  16614.570   1.62824  -1.2471   237674.05
  16622.992   1.62712  -1.24818   239789.66
  16631.789   1.62174  -1.24939   241064.94
  16640.963   1.61608  -1.2509   242948.92
  16649.779   1.61394  -1.25188   244218.61
  16658.604   1.61513  -1.2532   246154.98
  16667.809   1.61862  -1.2545   247593.05
  16677.021   1.61666  -1.25562    249035.8
  16686.246   1.61028  -1.25682   250526.25
  16695.480   1.60522   -1.258072   251753.39
  16705.096   1.60309  -1.25928   253064.23
  16714.723   1.60188  -1.26077   253670.77
  16723.990   1.59658  -1.26176   255682.98
  16733.639   1.59604  -1.26276   256537.91
  16743.670   1.59698  -1.2639   257727.52
  16753.342   1.59369  -1.26493   259062.81
  16763.396   1.59028  -1.26611    260420.8
  16773.094   1.58861  -1.26732   261770.48
  16783.174   1.58444  -1.2687   262601.87
  16793.641   1.58023  -1.27008   263775.94
  16803.746   1.57705  -1.27145   264416.72
  16813.863   1.57561    -1.27279   265003.16
  16824.369   1.57211  -1.27352   266685.31
  16834.887   1.57161  -1.27488   267148.16
  16845.420   1.5681  -1.27655   268238.72
  16855.965   1.56495   -1.277803   268615.94
  16866.525    1.565063  -1.27875   269000.87
  16877.477   1.56224  -1.28019   269991.47
  16888.441   1.55698  -1.2815   270751.78
  16899.041   1.55284   -1.282753   271208.78
  16910.416   1.54903  -1.28406    270035.5
  16921.424   1.54907  -1.28535   270822.87
  16932.447   1.54834  -1.28654   271060.97
  16943.865    1.545443  -1.28877   271386.72
  16955.301    1.543181  -1.29044   271523.19
  16966.371   1.53947  -1.29155   271589.37
  16977.836   1.53751  -1.29281   271554.22
  16989.699   1.53386  -1.29402   271758.75
  17001.197    1.530827  -1.29541      271510