File: data/Sr/SrO_rt_01.xdi
# XDI/1.0 EXAFS Data Collector 1.1 AD.RGN
# Column.1: energy eV
# Column.2: mutrans
# Column.3: mufluor
# Column.4: murefer
# Column.5: i0
# Beamline.name: SSRL 4-3
# Detector.I0: N2 15cm
# Detector.I1: N2+Ar 30cm
# Detector.If: Ar   (Lytle detector, using Rb Filter)
# Detector.I2: Ar
# Element.edge: K
# Element.symbol: Sr
# Mono.d_spacing: 1.920128
# Mono.name: Si(220)
# Mono.notes: (?) unfocussed, detuned 50%, clockwise at E=17000eV
# Sample.formula: SrO
# Sample.name: strontium oxide
# Sample.prep: powder
# Sample.reference: SrCO3
# Sample.temperature: room temperature
# Scan.start_time: 1995-06-14 19:09:21
# ///
#    Note: mono d_spacing is nominal!
#-------------
#   energy   mutrans    mufluor     murefer      i0
  15699.933  -1.62723  0.382814   1.07877   203845.59
  15719.844   -1.632145  0.375697   1.0762   201361.59
  15740.136  -1.63719  0.368559   1.07357   198863.59
  15760.152  -1.6423  0.359983   1.07105   193822.59
  15779.891  -1.64709  0.351354    1.068593   194504.59
  15800.011  -1.65212  0.342877   1.06599   191832.59
  15819.854   -1.657051  0.335825   1.06335   189190.59
  15840.076  -1.66197  0.327003   1.06086   186811.59
  15860.021  -1.66686  0.320076   1.05828   184352.59
  15880.018  -1.67175  0.312028   1.05573   181909.59
  15900.063  -1.67661  0.305901   1.05323   179400.59
  15920.164  -1.68131  0.300582   1.05058   176866.59
  15939.978  -1.6861  0.296313   1.04809   174774.59
  15959.844  -1.69066  0.293715   1.04558   172101.59
  15980.097  -1.69533  0.292139   1.043   169559.59
  16000.064  -1.69978  0.29429   1.04047   167317.59
  16020.082  -1.70408  0.299394   1.03801   164842.59
  16040.152  -1.7081  0.310004   1.03557   162481.59
  16059.933  -1.71148  0.330891    1.033106   160200.59
  16080.104  -1.71377  0.372522    1.030809   157437.59
  16099.984  -1.71254  0.467901   1.02884   155376.59
  16119.917  -1.693  0.839546   1.02872   152783.59
  16122.670  -1.68563  0.957318   1.02925   152327.59
  16125.079  -1.67471     1.13026   1.03014   152159.59
  16127.490  -1.65538   1.42178   1.03189   151769.59
  16129.901  -1.61523   2.01832   1.03583   151704.59
  16132.657  -1.50108   3.59327   1.04766   151239.59
  16135.069  -1.32993   5.6152   1.0671   151099.59
  16137.483  -1.11631   7.68187   1.09202   150519.59
  16139.897   -0.878348   9.24233   1.12337   150250.59
  16142.657 -0.615904   9.25098   1.15516   150109.59
  16145.073 -0.508283   9.27307   1.15892   149751.59
  16147.490 -0.551097   9.2873   1.1441   149521.59
  16149.907 -0.646542   9.32299   1.12638   148948.59
  16152.670 -0.725991   9.33276    1.112419   148792.59
  16155.090 -0.771444    9.366991   1.10691   296495.19
  16156.473 -0.794186    9.368993   1.10525   296502.06
  16157.854 -0.818733   9.38248   1.10415   296290.69
  16159.237 -0.843133   9.39345   1.10349   296267.06
  16160.968 -0.868713   9.40032   1.10359   296559.19
  16162.695 -0.882969   9.42602   1.10481   296446.06
  16164.426 -0.8837   9.44833   1.10692   296546.66
  16166.157 -0.874319   9.47022   1.10898   296687.03
  16168.234 -0.856237   9.52257   1.1112   296050.12
  16170.311 -0.835797   9.52407     1.11303      297175
  16172.388 -0.815258   9.54217   1.11555   297923.59
  16174.466  -0.7946992   9.51294    1.118239   300297.94
  16176.545 -0.776824   9.52876   1.12044   301363.03
  16178.971 -0.760171   9.56233   1.12196   302039.87
  16181.399 -0.749506   9.56849   1.12187   303685.47
  16183.826 -0.746562   9.6024   1.12066   304587.81
  16186.254 -0.749912   9.62799   1.11884   305888.91
  16189.030 -0.757368   9.65516   1.11611   307273.75
  16191.809 -0.76608   9.66001   1.11293   309503.34
  16194.587 -0.778137    9.691943   1.11007   310999.69
  16197.366 -0.794959   9.723   1.10777   312653.75
  16200.493 -0.816504   9.74061   1.10574   314835.59
  16203.274  -0.8327014   9.78885   1.10463   316156.16
  16206.405 -0.844722   9.80697   1.10431    318639.5
  16209.884 -0.849735   9.83111   1.10505   321036.56
  16213.016 -0.848151   9.87005   1.1061   323051.37
  16216.499 -0.842294   9.9094   1.10686   325128.94
  16219.981 -0.835056   9.93756   1.10693   327651.28
  16223.468 -0.827873   9.98045   1.10674   329861.34
  16226.954 -0.821878   10.0231   1.10643   332205.16
  16230.792 -0.819114   10.0992   1.10619   333554.72
  16234.281 -0.82072   10.178   1.10614      334999
  16238.122 -0.824283   10.2092   1.10572   338020.06
  16242.313 -0.827798   10.2226   1.10437   341493.87
  16246.159 -0.831709   10.2136   1.10271   346054.41
  16250.354 -0.836773   10.1885   1.10104   351520.72
  16254.553 -0.842353   10.1711   1.09908   355362.78
  16258.753 -0.848708   10.1278   1.099   358663.56
  16262.957 -0.855175   10.0925   1.09819   360648.09
  16267.162 -0.861699   10.0564    1.097509   364137.41
  16271.719 -0.868251   10.0233   1.09701   367594.44
  16276.280 -0.871425   10.0202   1.09657   371510.22
  16280.844  -0.8699687   10.0547   1.09654   375494.75
  16285.760 -0.866007   10.1028   1.09654   380003.03
  16290.328 -0.863392    10.13722    1.096075   383831.06
  16295.252 -0.86202   10.17   1.0951   387750.84
  16300.179  -0.8606475   10.2008   1.0943   391176.34
  16305.459   -0.861003    10.21762   1.09409   395223.62
  16310.392 -0.865857   10.1975   1.09364   398786.66
  16315.680 -0.872491   10.1671   1.09299   402342.41
  16320.972 -0.875419   10.1645   1.09206   406852.94
  16326.268 -0.876189   10.178   1.09091   411111.19
  16331.564 -0.87697   10.1938   1.08987   414622.22
  16337.221 -0.878349   10.2046   1.08885   419186.97
  16342.881 -0.881191   10.2047   1.0878   422987.47
  16348.544 -0.885755   10.189   1.08701   426664.72
  16354.211 -0.890454   10.1732   1.08651   431750.72
  16360.238  -0.8943293   10.1656   1.08616   435542.47
  16365.914 -0.896271   10.1746   1.08584   439868.97
  16371.948 -0.896307   10.1973    1.085088   444925.22
  16377.989  -0.8965682   10.2201   1.08418   448291.22
  16384.389 -0.898066   10.2342   1.08298   452498.97
  16390.438 -0.899633   10.2487   1.082   456829.44
  16396.848 -0.901699   10.2591   1.08103   460601.69
  16403.262 -0.904683    10.26162   1.08019   464977.66
  16409.684 -0.908778   10.2552   1.07943   469608.41
  16416.107  -0.9131631   10.2461    1.078641   473805.87
  16422.895 -0.917144   10.2413   1.0776   478589.09
  16429.332 -0.919377   10.2527   1.07663   483484.09
  16436.129 -0.920929   10.2659   1.07568   487924.81
  16443.291 -0.922597    10.28145   1.07466   492003.28
  16450.104 -0.924552   10.294   1.07391    495083.5
  16457.277 -0.926801   10.3039   1.0732   499521.47
  16464.100 -0.929455   10.3119   1.07247   504328.19
  16471.289 -0.932837   10.3168   1.07146   508108.66
  16478.842 -0.936105   10.3178   1.07045   511903.84
  16486.043 -0.938676   10.3279   1.0695   515082.81
  16493.611 -0.940817   10.3428   1.06838    519300.5
  16500.826 -0.942523   10.358   1.06744   523083.97
  16508.406 -0.944515   10.375   1.06647   526811.19
  16516.357 -0.94734   10.3841   1.06538   530839.12
  16523.953  -0.9505686   10.3885   1.06444   534377.81
  16531.920 -0.954267   10.3924   1.06345   537933.25
  16539.531 -0.957416   10.3974   1.06256   541986.44
  16547.875 -0.960633   10.4045   1.06137   544467.37
  16555.863 -0.963566   10.4137   1.06035   546756.06
  16563.859 -0.966283   10.4233   1.05932    551762.5
  16572.230 -0.968972   10.4414   1.0582   554213.69
  16580.607 -0.971549   10.4541   1.05711   557100.62
  16588.992 -0.974359   10.465   1.05606   560070.31
  16597.387 -0.977528   10.473   1.05493   562720.75
  16605.793 -0.980744   10.4819    1.053756   565958.94
  16614.570 -0.983996   10.4887   1.05266   569357.81
  16622.992 -0.987127   10.5006   1.05154    572082.5
  16631.789 -0.990419   10.5097    1.050318   573600.94
  16640.963 -0.993817   10.5199   1.04914   576065.06
  16649.779 -0.996835   10.53   1.04802      579009
  16658.604 -0.999789     10.5414   1.04688   581871.69
  16667.809  -1.00303   10.5544   1.04578   582755.06
  16677.021   -1.006467   10.5631   1.04456   585229.25
  16686.246  -1.00996   10.5715   1.0432   587045.12
  16695.480  -1.01329   10.5794   1.04198   589087.81
  16705.096  -1.01665   10.5893   1.04078   590600.19
  16714.723  -1.02014   10.6013   1.03946   591189.31
  16723.990  -1.02328   10.6133   1.03837   593841.25
  16733.639  -1.02655   10.6246   1.03712   595068.87
  16743.670  -1.0299   10.6373   1.03584   595126.25
  16753.342   -1.033322   10.6491   1.03465   597025.44
  16763.396  -1.03678    10.65953   1.03339   598396.31
  16773.094  -1.04018   10.6682   1.03215   600031.94
  16783.174  -1.04362   10.682   1.03083   601034.31
  16793.641  -1.04727   10.6922   1.02947   601492.44
  16803.746  -1.05071   10.7027   1.02823   601228.31
  16813.863  -1.05379   10.7124   1.02706   597797.94
  16824.369  -1.05755   10.7272   1.02567   603400.31
  16834.887  -1.06109   10.7388   1.02438   603523.44
  16845.420  -1.06469   10.7521   1.02298   602065.31
  16855.965  -1.06816   10.7623   1.02181   601800.94
  16866.525  -1.07164   10.774   1.02051   601612.31
  16877.477  -1.07529   10.7859   1.01918   601017.37
  16888.441  -1.07889   10.7972   1.01782   600637.25
  16899.041  -1.0824   10.8087   1.01656   599952.87
  16910.416   -1.086063    10.81846   1.01515   598149.25
  16921.424  -1.08962   10.8322   1.01387   598472.31
  16932.447  -1.09316   10.8439   1.01256   596846.19
  16943.865  -1.09687   10.8563   1.01132   595251.81
  16955.301  -1.1006   10.867   1.00994   592929.12
  16966.371  -1.10419   10.8765   1.00864   591663.25
  16977.836  -1.10782   10.8923   1.00732   589716.06
  16989.699   -1.111598   10.9024   1.00594   588861.69
  17001.197  -1.1153   10.9139   1.00462      585658