File: data/Sr/SrSO4_10K_03.xdi
# XDI/1.0 EXAFS Data Collector 1.1 AD.RGN
# Column.1: energy eV
# Column.2: mutrans
# Column.3: murefer
# Column.4: i0
# Beamline.name: SSRL 4-3
# Detector.I0: N2 15cm
# Detector.I1: N2+Ar 30cm
# Detector.If: Ar   (Lytle detector, using Rb Filter)
# Detector.I2: Ar
# Element.edge: K
# Element.symbol: Sr
# Mono.d_spacing: 1.920128
# Mono.name: Si(220)
# Mono.notes: (?) unfocussed, detuned 50%, clockwise at E=17000eV
# Sample.formula: SrSO4
# Sample.name: strontium sulfate
# Sample.prep: powder
# Sample.reference: SrCO3
# Sample.temperature: 10K
# Scan.start_time: 1995-06-16 08:48:56
# ///
#    Note: mono d_spacing is nominal!
#-------------
#   energy   mutrans       murefer      i0
  15699.933 0.0843543  -1.13212    124056.7
  15719.844 0.0814962  -1.13508    122655.7
  15740.136 0.0785653  -1.13814    121528.7
  15760.152 0.0756292  -1.14101    118430.7
  15779.891 0.0728684  -1.14383    119121.7
  15800.011 0.0699564  -1.14677    117685.7
  15819.854 0.0670993  -1.14964    116529.7
  15840.076 0.0641738  -1.15253    115262.7
  15860.021 0.0613652  -1.15538    114120.7
  15880.018 0.0585221  -1.15833    112758.7
  15900.063  0.05571718  -1.16118    111535.7
  15920.164 0.0529147  -1.16413    110236.7
  15939.978   0.0502067  -1.167    109103.7
  15959.844 0.0474701  -1.16979    107773.7
  15980.097 0.0447499  -1.17271    106561.7
  16000.064 0.0421096  -1.17561    105358.7
  16020.082 0.0395512  -1.17852    104140.7
  16040.152 0.0371149  -1.18132    102855.7
  16059.933 0.0349705  -1.18417    101771.7
  16080.104 0.0332795  -1.18705    100345.7
  16099.984 0.033068  -1.18982   99101.703
  16119.917 0.0393595   -1.192529   97823.703
  16122.670 0.0417485  -1.19283   97764.703
  16125.079 0.044979  -1.19304   97595.703
  16127.490 0.0501318  -1.19334   97400.703
  16129.901 0.0585838  -1.19378   97353.703
  16132.657 0.0796696  -1.19394   97187.703
  16135.069   0.1216903  -1.19367   97021.703
  16137.483  0.210356  -1.19324   97032.703
  16139.897  0.380082  -1.19335   96802.703
  16142.657  0.636105  -1.19336   96518.703
  16145.073  0.831703  -1.19433   96527.703
  16147.490  0.80151  -1.19557   96353.703
  16149.907  0.605292  -1.19563   96185.703
  16152.670  0.45677  -1.19582   96097.703
  16155.090  0.433238  -1.19587   191735.41
  16156.473  0.445959  -1.19608   191653.25
  16157.854  0.464259  -1.19647   191822.78
  16159.237   0.4765504  -1.19682   191788.02
  16160.968  0.478213  -1.19705   191892.94
  16162.695  0.471446  -1.19726   192085.56
  16164.426   0.4662303  -1.19759   192443.87
  16166.157  0.468009  -1.19761   192724.87
  16168.234  0.483847  -1.19776   192818.58
  16170.311  0.512476  -1.19811   192284.97
  16172.388  0.547383  -1.19838   193267.05
  16174.466  0.583941  -1.19866   194632.83
  16176.545  0.611093  -1.19906    195631.3
  16178.971  0.606059  -1.19948   196480.45
  16181.399  0.557911  -1.19968   197076.31
  16183.826  0.512813  -1.1998   198167.86
  16186.254  0.503099  -1.20008   199165.09
  16189.030  0.532609  -1.20046   200250.03
  16191.809  0.566262  -1.20106   201691.66
  16194.587  0.55679  -1.20168   202853.98
  16197.366  0.514014  -1.20203      204128
  16200.493  0.474663  -1.20237    205444.7
  16203.274  0.462224   -1.202819   206896.09
  16206.405  0.455334  -1.20328   208338.19
  16209.884   0.4515647  -1.20357   210083.97
  16213.016  0.468853  -1.20383   211526.45
  16216.499  0.507795  -1.20444   213387.62
  16219.981  0.536416  -1.20505   215205.48
  16223.468  0.544337  -1.20551   216740.05
  16226.954  0.54522   -1.205906    218736.3
  16230.792   0.5525062  -1.20648   220426.23
  16234.281  0.54039  -1.20694   221607.87
  16238.122  0.508426  -1.20751    222317.2
  16242.313  0.48448   -1.208175   223604.22
  16246.159  0.472728  -1.20873   226457.94
  16250.354  0.465774  -1.20918   230893.34
  16254.553  0.457743  -1.20978   234694.44
  16258.753  0.459086  -1.21038   237487.23
  16262.957  0.469827  -1.21076   239709.72
  16267.162  0.479287  -1.21138   241399.91
  16271.719  0.496198  -1.21211   242991.78
  16276.280  0.511513  -1.21277   245543.34
  16280.844   0.5198414  -1.21332   249275.59
  16285.760  0.511827  -1.214   252602.55
  16290.328  0.488721  -1.21464    255324.2
  16295.252   0.4660183  -1.2153   258194.53
  16300.179  0.461186  -1.21596   261116.56
  16305.459  0.465326  -1.21667   264077.28
  16310.392  0.473106  -1.21729   266946.69
  16315.680  0.482332    -1.21809   270051.81
  16320.972  0.472937  -1.21885   272910.62
  16326.268  0.460241  -1.21954   275728.09
  16331.564  0.468109  -1.22026   278806.28
  16337.221  0.478236   -1.221074   282182.19
  16342.881  0.481183  -1.2219   285521.75
  16348.544  0.48758  -1.22272   288502.03
  16354.211  0.481835   -1.223448   291524.97
  16360.238  0.462706  -1.22437   294833.62
  16365.914  0.447218  -1.22524   297870.97
  16371.948  0.448692  -1.22607      301161
  16377.989  0.458963  -1.22689   304703.75
  16384.389  0.460708  -1.22782   307727.16
  16390.438  0.464589  -1.22864   311109.28
  16396.848  0.470291  -1.22952   314673.09
  16403.262  0.462462   -1.230404   317940.59
  16409.684  0.453687  -1.23128   321250.81
  16416.107  0.449528  -1.23218   324890.69
  16422.895  0.453149   -1.233109   327913.28
  16429.332  0.451678  -1.23401   331501.56
  16436.129  0.438391  -1.23497   334802.53
  16443.291  0.43517  -1.236   338053.19
  16450.104  0.437106  -1.23689   341662.53
  16457.277  0.451237  -1.23788   344764.59
  16464.100  0.466586  -1.23883   347957.31
  16471.289  0.456921  -1.23989   351660.75
  16478.842  0.434863  -1.24089   355109.87
  16486.043  0.42779  -1.24182   358857.69
  16493.611  0.428976  -1.24287   362006.22
  16500.826  0.428952    -1.24383   365152.41
  16508.406  0.43402  -1.24489   368999.31
  16516.357  0.43276  -1.24598   372434.91
  16523.953  0.429273  -1.24704   375536.19
  16531.920  0.427699  -1.24807   378928.16
  16539.531  0.431704  -1.24911   382586.84
  16547.875  0.431136  -1.25025   385637.19
  16555.863  0.427374  -1.2514   388353.25
  16563.859  0.422797  -1.25241      391947
  16572.230  0.417615  -1.2536   394718.44
  16580.607  0.410811  -1.25472   397816.59
  16588.992  0.409373  -1.25582   401491.41
  16597.387  0.415492  -1.25695   404209.94
  16605.793  0.416511  -1.25803   406623.16
  16614.570  0.414356  -1.25915   410623.06
  16622.992  0.412587  -1.26027   413421.66
  16631.789  0.408307   -1.261436   416527.94
  16640.963  0.400209  -1.26271   418912.94
  16649.779  0.399659  -1.26388   422072.59
  16658.604  0.407241  -1.26503   425529.97
  16667.809    0.404763  -1.26621   428203.03
  16677.021  0.396391  -1.26744   430231.81
  16686.246  0.392302  -1.26863   433196.25
  16695.480  0.389487  -1.26981   435530.41
  16705.096  0.394278  -1.27101   437656.22
  16714.723  0.395032  -1.27214   439296.75
  16723.990  0.388744  -1.27333   442862.97
  16733.639  0.384478  -1.27457   445322.91
  16743.670  0.383435  -1.27579    447593.5
  16753.342  0.382794  -1.27701   449759.81
  16763.396  0.382536  -1.27823   452089.81
  16773.094  0.380484  -1.27946    454137.5
  16783.174  0.375053  -1.2807   455898.87
  16793.641  0.372754  -1.28207   457493.94
  16803.746  0.369881  -1.28343   459618.72
  16813.863  0.369157  -1.28468   460516.16
  16824.369  0.371695  -1.28596   463509.31
  16834.887  0.366567   -1.287191   464674.16
  16845.420   0.3653659  -1.28847   466333.72
  16855.965  0.364273  -1.28979   467783.94
  16866.525  0.358115  -1.29102   468923.87
  16877.477  0.355734   -1.292389   470460.47
  16888.441   0.3549198  -1.29372   471234.78
  16899.041  0.353475   -1.295017   472978.78
  16910.416  0.352489  -1.2964    474201.5
  16921.424  0.349962  -1.29775   475433.87
  16932.447  0.346878  -1.29909   476529.97
  16943.865  0.344596  -1.30052   477507.72
  16955.301  0.344081  -1.30188   477767.19
  16966.371   0.3434105  -1.30321   479275.37
  16977.836  0.338339  -1.30463   479525.22
  16989.699  0.333525  -1.30607   479555.75
  17001.197  0.331702  -1.30745      480679