File: data/Sr/SrSO4_rt_03.xdi
# XDI/1.0 EXAFS Data Collector 1.1 AD.RGN
# Column.1: energy eV
# Column.2: mutrans
# Column.3: mufluor
# Column.4: murefer
# Column.5: i0
# Beamline.name: SSRL 4-3
# Detector.I0: N2 15cm
# Detector.I1: N2+Ar 30cm
# Detector.If: Ar   (Lytle detector, using Rb Filter)
# Detector.I2: Ar
# Element.edge: K
# Element.symbol: Sr
# Mono.d_spacing: 1.920128
# Mono.name: Si(220)
# Mono.notes: (?) unfocussed, detuned 50%, clockwise at E=17000eV
# Sample.formula: SrSO4
# Sample.name: strontium sulfate
# Sample.prep: powder
# Sample.reference: SrCO3
# Sample.temperature: room temperature
# Scan.start_time: 1995-06-14 22:11:02
# ///
#    Note: mono d_spacing is nominal!
#-------------
#   energy   mutrans      mufluor    murefer      i0
  15699.933  -1.67778  0.764274  0.55741   133365.59
  15719.844  -1.6824  0.747355  0.555394   131281.59
  15740.136  -1.6871  0.730327  0.553198    129314.6
  15760.152  -1.69185  0.711031  0.551018    126119.6
  15779.891  -1.69622   0.6930096  0.548968    126605.6
  15800.011  -1.70068  0.674167  0.546737    124955.6
  15819.854  -1.70524  0.65706  0.544618    123612.6
  15840.076  -1.70983  0.639596  0.542384    122092.6
  15860.021  -1.71434  0.623084  0.540157    120747.6
  15880.018  -1.71876  0.607506  0.537968    119101.6
  15900.063    -1.72318  0.593294  0.535752    117639.6
  15920.164  -1.72765  0.580703  0.533596    116248.6
  15939.978  -1.73194  0.568555   0.5314218    114908.6
  15959.844  -1.73633   0.5571521  0.529206    113374.6
  15980.097  -1.74078   0.5487004  0.527036    111982.6
  16000.064  -1.74506  0.543813    0.524823    110778.6
  16020.082  -1.74942  0.543324  0.522665    109271.6
  16040.152  -1.75338  0.548149  0.520483    107802.6
  16059.933  -1.75734  0.560723  0.518387    106378.6
  16080.104  -1.76083  0.592421  0.516334    104901.6
  16099.984  -1.76291   0.6687866  0.514538    103539.6
  16119.917  -1.75905  0.951751  0.513937    102233.6
  16122.670  -1.75707   1.0353  0.514246    101964.6
  16125.079  -1.75432   1.14415   0.5146382    101806.6
  16127.490  -1.74982   1.3106  0.515755    101506.6
  16129.901   -1.742281   1.57515  0.518047    101428.6
  16132.657  -1.72439   2.18915  0.525904    101353.6
  16135.069  -1.68668   3.427  0.541762    101054.6
  16137.483  -1.60437   5.94713  0.564008    100945.6
  16139.897  -1.46498   9.79006  0.591623    100799.6
  16142.657  -1.30962   13.5728  0.62036    100611.6
  16145.073  -1.27823   13.8247  0.627878    100427.6
  16147.490  -1.33411   12.913  0.617286    100266.6
  16149.907  -1.39555    11.40636  0.600256   99963.602
  16152.670  -1.42732   10.63  0.58429   99793.602
  16155.090  -1.43517   10.4415  0.577388    199160.2
  16156.473  -1.43806    10.38075  0.575801   198996.08
  16157.854  -1.44076   10.3281  0.574841    198913.7
  16159.237  -1.44241   10.2969  0.574158   198632.06
  16160.968  -1.44172   10.3315  0.573692   199250.19
  16162.695  -1.4388   10.4246  0.574063   199307.05
  16164.426  -1.43401   10.5597  0.575344   199561.66
  16166.157  -1.42795     10.7389  0.57707   199461.02
  16168.234  -1.4218    10.90104   0.5789268   199317.12
  16170.311  -1.4212   10.9069  0.580856   199802.98
  16172.388  -1.42301   10.8844  0.583576   200651.59
  16174.466  -1.42144   10.9506  0.586577   202101.94
  16176.545  -1.4171   11.0831  0.589061   203046.05
  16178.971  -1.41003   11.2819    0.590751   203486.89
  16181.399  -1.40356   11.4594  0.590847   204504.48
  16183.826  -1.40193   11.5119  0.589785   205467.83
  16186.254  -1.40703   11.4  0.588135   206668.92
  16189.030  -1.41705   11.1633  0.585866   207688.75
  16191.809  -1.4244   11.0005  0.583061   208974.34
  16194.587  -1.42749   10.9415  0.580254   210075.67
  16197.366  -1.43002   10.8925  0.577953   211184.75
  16200.493  -1.43415    10.80894  0.575981   212373.59
  16203.274  -1.43672   10.7698  0.574731   213780.17
  16206.405  -1.43842   10.7487  0.574219   215639.48
  16209.884  -1.44103   10.7081   0.5749626   217228.56
  16213.016  -1.44342   10.6735  0.576035   218822.39
  16216.499  -1.44432   10.6796  0.576955   220298.95
  16219.981  -1.44322   10.7367    0.577206   222116.27
  16223.468   -1.440768    10.83219   0.5770732   223939.33
  16226.954  -1.43659   10.9799  0.576701   225327.14
  16230.792   -1.432403    11.14237  0.576441    226482.7
  16234.281  -1.43191    11.18097   0.5763945   227858.02
  16238.122  -1.43568   11.0645   0.5760935   229892.06
  16242.313  -1.44321   10.8545  0.575073   232620.87
  16246.159   -1.449492   10.701  0.573598   236067.42
  16250.354   -1.453999   10.6586  0.572115   239071.72
  16254.553  -1.45559   10.6866  0.570745   242193.77
  16258.753  -1.45576   10.7312  0.569788   244261.56
  16262.957  -1.45674   10.746  0.569233   246241.11
  16267.162  -1.4579   10.7318  0.568751   248456.39
  16271.719  -1.45916    10.70892  0.56829   251117.42
  16276.280  -1.46015   10.7039  0.567912   253790.22
  16280.844  -1.46074    10.73824  0.567822   257065.75
  16285.760  -1.46083   10.7898  0.567966   260188.03
  16290.328  -1.46112   10.814  0.567619   263252.06
  16295.252  -1.46214    10.82643   0.5667565   265932.84
  16300.179  -1.46354   10.8244  0.566036   268759.34
  16305.459  -1.46452   10.8394  0.565885   271625.62
  16310.392  -1.46633   10.8258  0.565593   274829.66
  16315.680   -1.469515   10.7809  0.565058   277532.41
  16320.972  -1.47177   10.7649  0.56422   280591.94
  16326.268  -1.47311   10.7702  0.56317   283619.19
  16331.564  -1.47365   10.7983  0.562137   287018.22
  16337.221  -1.47486   10.8073  0.561217   289378.97
  16342.881  -1.47682   10.8005  0.560277   292949.47
  16348.544  -1.47863   10.7963  0.559617   296030.72
  16354.211  -1.48038   10.7894  0.559226   299303.72
  16360.238  -1.48198   10.8001  0.558951   302710.47
  16365.914  -1.4834    10.80473  0.558664   305884.97
  16371.948  -1.48493   10.8128  0.558112   308803.22
  16377.989  -1.48661   10.8152  0.55732   312069.22
  16384.389  -1.48853   10.8154  0.556316   315521.97
  16390.438  -1.49019   10.8158  0.555385   319047.44
  16396.848  -1.49198   10.818  0.554505   322054.69
  16403.262  -1.49386   10.8145  0.553767   325331.66
  16409.684  -1.49605   10.8078  0.55308   328863.41
  16416.107  -1.49791   10.8041  0.5524   332463.87
  16422.895  -1.49948    10.81467  0.551537   335204.09
  16429.332  -1.5013   10.8168  0.550645   338962.09
  16436.129  -1.50345   10.8095  0.549753   342530.81
  16443.291  -1.50564   10.8057  0.548939   345400.28
  16450.104  -1.50745   10.8111  0.548329    348650.5
  16457.277  -1.50907   10.8234  0.547718   352177.47
  16464.100  -1.51072   10.8296  0.547098   356047.19
  16471.289  -1.51259   10.8366  0.546319   359269.66
  16478.842  -1.51447   10.8392  0.545431   362175.84
  16486.043  -1.51623   10.8496  0.544577   365301.81
  16493.611   -1.518248   10.8508  0.543675    368772.5
  16500.826  -1.52024   10.8522  0.542869   372060.97
  16508.406  -1.52239   10.8497  0.541995   375459.16
  16516.357  -1.52477   10.8467  0.541082   378281.12
  16523.953   -1.526885   10.8462  0.540319   381217.81
  16531.920  -1.52884   10.8505  0.539464   384086.25
  16539.531  -1.53072   10.8613  0.53874   387590.44
  16547.875  -1.53279   10.8665  0.537762   390504.41
  16555.863  -1.5348   10.8707   0.5369333   393101.09
  16563.859  -1.53691   10.8735  0.536081   396757.53
  16572.230  -1.53919   10.8779  0.53517   399223.69
  16580.607  -1.54153   10.8761  0.534275   402273.62
  16588.992  -1.54383    10.87516  0.533347   405269.31
  16597.387  -1.54609   10.8769  0.532431   408069.75
  16605.793  -1.54824   10.8768  0.531499   410188.91
  16614.570  -1.55055   10.8819  0.530616   413943.84
  16622.992  -1.55272   10.8824  0.529727    416086.5
  16631.789  -1.55498   10.8857  0.528766   418527.94
  16640.963  -1.55745   10.8884  0.527762   421458.09
  16649.779  -1.55984   10.8855  0.526804      423984
  16658.604  -1.56218   10.8898  0.525839   426255.66
  16667.809  -1.56462   10.8906  0.524893   428984.06
  16677.021  -1.56698   10.8934  0.523919   430345.22
  16686.246  -1.56929   10.8986   0.5229411   432598.12
  16695.480  -1.57175   10.897  0.521987   434377.78
  16705.096  -1.57423   10.8983   0.5209024   435743.19
  16714.723  -1.57698   10.8885   0.5198335   437414.34
  16723.990  -1.57924   10.9016  0.5189   440155.22
  16733.639    -1.58171   10.8989  0.517895   441646.87
  16743.670  -1.58424   10.9034  0.516834   443807.28
  16753.342  -1.58669   10.9037  0.51581   444964.41
  16763.396   -1.589262   10.9068  0.514754   446384.28
  16773.094  -1.59175   10.9065  0.513688   448435.94
  16783.174  -1.59435   10.9052  0.512605   449192.31
  16793.641  -1.59704   10.9085  0.511481   450932.44
  16803.746  -1.59967   10.9066  0.510557   452209.31
  16813.863  -1.60192   10.9366  0.509575   451111.94
  16824.369  -1.60473   10.9092  0.508328   455276.31
  16834.887   -1.607429   10.9103  0.507263   456022.44
  16845.420  -1.6101   10.9101  0.506218   455663.31
  16855.965  -1.61281   10.9111  0.505112   456575.94
  16866.525  -1.61544   10.9119  0.50403   457364.28
  16877.477  -1.61823   10.9154  0.502949   457459.41
  16888.441  -1.62083   10.9148  0.501816   457799.28
  16899.041    -1.62355   10.9089  0.500702   459306.87
  16910.416  -1.62633   10.907  0.499518   458867.22
  16921.424  -1.62899   10.916  0.498416   458697.34
  16932.447  -1.63174   10.9143  0.497284   459015.19
  16943.865  -1.63455   10.9152  0.496156   458665.78
  16955.301  -1.63729   10.9163  0.495013   458336.12
  16966.371  -1.63998   10.9198  0.493933   458409.22
  16977.836  -1.6428   10.9177   0.4928033   457849.06
  16989.699   -1.645586   10.9283  0.491668   457083.66
  17001.197  -1.64825   10.9294  0.490526      457006