File: data/Sr/SrSO4_10K_01.xdi
# XDI/1.0 EXAFS Data Collector 1.1 AD.RGN
# Column.1: energy eV
# Column.2: mutrans
# Column.3: murefer
# Column.4: i0
# Beamline.name: SSRL 4-3
# Detector.I0: N2 15cm
# Detector.I1: N2+Ar 30cm
# Detector.If: Ar   (Lytle detector, using Rb Filter)
# Detector.I2: Ar
# Element.edge: K
# Element.symbol: Sr
# Mono.d_spacing: 1.920128
# Mono.name: Si(220)
# Mono.notes: (?) unfocussed, detuned 50%, clockwise at E=17000eV
# Sample.formula: SrSO4
# Sample.name: strontium sulfate
# Sample.prep: powder
# Sample.reference: SrCO3
# Sample.temperature: 10K
# Scan.start_time: 1995-06-16 08:48:56
# ///
#    Note: mono d_spacing is nominal!
#-------------
#   energy   mutrans       murefer      i0
  15699.933 0.0835892  -1.13175    130706.7
  15719.844 0.0808274  -1.13468    129373.7
  15740.136 0.0779113  -1.13772    128152.7
  15760.152 0.0749595   -1.140654    125195.7
  15779.891 0.0721374   -1.143515    126104.7
  15800.011 0.0692438  -1.14638    124639.7
  15819.854 0.0663989   -1.149185    123430.7
  15840.076 0.0635217   -1.152077    122192.7
  15860.021 0.0607149  -1.15496    121009.7
  15880.018 0.0578853  -1.15771    119830.7
  15900.063 0.0550986  -1.1606    118554.7
  15920.164  0.05231671  -1.16347    117329.7
  15939.978  0.04962335  -1.16633    116096.7
  15959.844 0.0468981  -1.1692    114797.7
  15980.097 0.0441988  -1.17198    113573.7
  16000.064 0.0416108   -1.174858    112336.7
  16020.082 0.0390701  -1.17764    111165.7
  16040.152  0.03668977  -1.1805    109854.7
  16059.933 0.0345062  -1.1832    108630.7
  16080.104  0.03285945  -1.18604    107144.7
  16099.984 0.0326336   -1.188865    105880.7
  16119.917 0.0389096  -1.19156    104592.7
  16122.670 0.041198  -1.19193    104593.7
  16125.079 0.0444069  -1.19207    104511.7
  16127.490  0.04941723  -1.19232    104311.7
  16129.901 0.0577401  -1.19276    104010.7
  16132.657 0.078357  -1.19285    103886.7
  16135.069   0.1193148   -1.192759    103701.7
  16137.483  0.204908  -1.19232    103657.7
  16139.897  0.372016  -1.19255    103501.7
  16142.657  0.625736  -1.19288    103070.7
  16145.073  0.825717   -1.194035    102975.7
  16147.490   0.8056448  -1.1952    102840.7
  16149.907   0.6121736  -1.19504    102637.7
  16152.670  0.458871  -1.19495    102402.7
  16155.090  0.432339  -1.19508   204532.41
  16156.473  0.444439  -1.19529   204213.25
  16157.854   0.4626196  -1.19561   204131.78
  16159.237  0.47549   -1.195983   204008.02
  16160.968  0.477803  -1.19624   204120.94
  16162.695  0.471097  -1.19641   204060.56
  16164.426  0.465752  -1.19663   204437.87
  16166.157  0.46729  -1.19664   204628.87
  16168.234  0.482627   -1.196854   204779.58
  16170.311  0.51071  -1.19725   204085.97
  16172.388  0.545278  -1.19743   204962.05
  16174.466  0.582099  -1.19772   206441.83
  16176.545  0.609751  -1.19812    207816.3
  16178.971  0.606471  -1.19858   208687.45
  16181.399    0.559652  -1.19881   209353.31
  16183.826  0.513658   -1.198937   210412.86
  16186.254  0.502374  -1.19913   211389.09
  16189.030  0.530973  -1.19957   212167.03
  16191.809  0.56524  -1.20016   213292.66
  16194.587  0.557201  -1.2007   214448.98
  16197.366  0.514831  -1.20104      215938
  16200.493  0.474999  -1.20135    217356.7
  16203.274  0.462019  -1.20166   218774.09
  16206.405  0.455113  -1.20217   220195.19
  16209.884  0.451103  -1.20251   221810.97
  16213.016  0.468074  -1.20278   223378.45
  16216.499  0.506877  -1.20328   225041.62
  16219.981  0.535644  -1.20388   226862.48
  16223.468  0.54395  -1.20436   228597.05
  16226.954  0.544792  -1.20479    230514.3
  16230.792  0.552071  -1.20535   232184.23
  16234.281  0.540417  -1.20573   233486.87
  16238.122  0.50867  -1.20635    234214.2
  16242.313  0.484403  -1.20696   235545.22
  16246.159  0.472551  -1.20752   238316.94
  16250.354  0.465614  -1.20795   242778.34
  16254.553    0.457596  -1.20847   246698.44
  16258.753  0.458628  -1.20903   249679.23
  16262.957  0.469397  -1.20957   251880.72
  16267.162  0.478987  -1.21017   252999.91
  16271.719  0.49579  -1.21087   254987.78
  16276.280   0.5111982  -1.21156   257617.34
  16280.844  0.519605  -1.21212   261253.59
  16285.760  0.511787  -1.21283   264852.56
  16290.328  0.488687  -1.21345   267571.19
  16295.252   0.4659844  -1.2141   270314.53
  16300.179  0.460941   -1.214694   273467.56
  16305.459  0.46494  -1.21547   276115.28
  16310.392   0.4725763  -1.21614   279490.69
  16315.680  0.481889  -1.21686   282130.81
  16320.972  0.472727   -1.217673   285399.62
  16326.268  0.459947  -1.21836   288165.09
  16331.564  0.467644  -1.21903   291304.28
  16337.221  0.477957  -1.21985   294141.19
  16342.881  0.480862  -1.22065   297523.75
  16348.544  0.487227  -1.22146   300747.03
  16354.211  0.481599   -1.222221   303940.97
  16360.238  0.462588  -1.22306   307059.62
  16365.914  0.446941  -1.22381   310774.97
  16371.948  0.448247  -1.2246      313766
  16377.989  0.458545  -1.22553   317097.75
  16384.389  0.460345  -1.22638   320050.16
  16390.438  0.46414  -1.22714   323782.28
  16396.848  0.469913   -1.228092   327201.09
  16403.262  0.462153  -1.22895   330651.59
  16409.684   0.4533745  -1.22985   333981.81
  16416.107  0.449119  -1.23073   337603.69
  16422.895  0.452765  -1.23168   340628.28
  16429.332  0.451439  -1.2326   344043.56
  16436.129  0.438167  -1.23353   347518.53
  16443.291  0.43476  -1.23448   351207.19
  16450.104  0.436704   -1.235459   354540.53
  16457.277  0.450675  -1.23641   357780.59
  16464.100   0.4660961  -1.23735   361072.31
  16471.289  0.456782   -1.238399   365001.75
  16478.842  0.434615  -1.23943   367739.87
  16486.043   0.4274065  -1.24039   370958.69
  16493.611  0.428553  -1.24142   373823.22
  16500.826  0.428458  -1.24238   376798.41
  16508.406  0.433515  -1.24338   379943.31
  16516.357  0.432307  -1.2445   382863.91
  16523.953  0.428731  -1.24546   386235.19
  16531.920  0.427205  -1.24659   389248.16
  16539.531  0.431211  -1.24761   392494.84
  16547.875  0.430705  -1.24881   395210.19
  16555.863  0.426851  -1.24984   398405.25
  16563.859  0.422311  -1.25093      402002
  16572.230  0.417075  -1.25205   404478.44
  16580.607  0.410274    -1.25327   407666.59
  16588.992  0.408783   -1.254349   410084.41
  16597.387  0.414889  -1.25549   413232.94
  16605.793  0.415949  -1.25663   416214.16
  16614.570  0.413807  -1.2578   418930.06
  16622.992  0.411975   -1.258907   421875.66
  16631.789  0.407621  -1.26004   424177.94
  16640.963  0.399643  -1.26136   427087.94
  16649.779  0.399006  -1.2626   429375.59
  16658.604  0.406705  -1.26381   432372.97
  16667.809  0.404228  -1.265   434648.03
  16677.021  0.395885  -1.26625   436803.81
  16686.246  0.391677   -1.267423   439210.25
  16695.480  0.388803  -1.2686   441191.41
  16705.096  0.39361  -1.26984   444252.22
  16714.723  0.394515   -1.271119   444603.75
  16723.990  0.388283  -1.27238   447388.97
  16733.639  0.383981  -1.27363   449881.91
  16743.670  0.382901   -1.274875    451691.5
  16753.342  0.38225   -1.276118   453883.81
  16763.396  0.382046  -1.27746   454634.81
  16773.094  0.379927  -1.27859    456320.5
  16783.174  0.374529  -1.27991   457797.87
  16793.641    0.372247  -1.28121   459423.94
  16803.746  0.369292  -1.28247   460509.72
  16813.863  0.368566  -1.28377   461565.16
  16824.369    0.371147  -1.28501   464571.31
  16834.887  0.366014  -1.28634   466077.16
  16845.420  0.364824  -1.28765   466904.72
  16855.965  0.363852  -1.28898   467874.94
  16866.525  0.35779  -1.29031   469095.87
  16877.477  0.35524  -1.29159   469905.47
  16888.441  0.35452  -1.29298   471456.78
  16899.041  0.352956   -1.294252   472549.78
  16910.416  0.351927  -1.29552    474236.5
  16921.424  0.349433   -1.296876   476628.87
  16932.447  0.346345  -1.29824   478840.97
  16943.865  0.344039   -1.299643   480332.72
  16955.301  0.34349  -1.30102   481950.19
  16966.371  0.342961  -1.30238   482946.37
  16977.836  0.3379  -1.30383   483411.22
  16989.699  0.333154  -1.3053   483210.75
  17001.197  0.331297  -1.30666      484993