File: data/Sr/SrSO4_10K_02.xdi
# XDI/1.0 EXAFS Data Collector 1.1 AD.RGN
# Column.1: energy eV
# Column.2: mutrans
# Column.3: murefer
# Column.4: i0
# Beamline.name: SSRL 4-3
# Detector.I0: N2 15cm
# Detector.I1: N2+Ar 30cm
# Detector.If: Ar   (Lytle detector, using Rb Filter)
# Detector.I2: Ar
# Element.edge: K
# Element.symbol: Sr
# Mono.d_spacing: 1.920128
# Mono.name: Si(220)
# Mono.notes: (?) unfocussed, detuned 50%, clockwise at E=17000eV
# Sample.formula: SrSO4
# Sample.name: strontium sulfate
# Sample.prep: powder
# Sample.reference: SrCO3
# Sample.temperature: 10K
# Scan.start_time: 1995-06-16 08:48:56
# ///
#    Note: mono d_spacing is nominal!
#-------------
#   energy   mutrans       murefer      i0
  15699.933 0.0843014  -1.13145    125417.7
  15719.844 0.081466  -1.13444    123964.7
  15740.136 0.0785327  -1.13748    122543.7
  15760.152 0.0756249  -1.14035    119631.7
  15779.891 0.0728518  -1.14316    120172.7
  15800.011 0.0699802  -1.14608    118830.7
  15819.854  0.06709871  -1.14897    117701.7
  15840.076 0.0642364   -1.151916    116439.7
  15860.021 0.0614062  -1.15476    115104.7
  15880.018 0.0585969  -1.15767    113813.7
  15900.063 0.0557664  -1.16051    112527.7
  15920.164 0.0529853  -1.1634    111372.7
  15939.978 0.0502168  -1.16632    110082.7
  15959.844 0.0475707  -1.16917    108842.7
  15980.097 0.0448004  -1.17205    107676.7
  16000.064 0.0421926  -1.1749    106317.7
  16020.082 0.0396462  -1.17775    105156.7
  16040.152 0.0372302  -1.18065    103801.7
  16059.933 0.0350474  -1.18341    102655.7
  16080.104 0.0333554  -1.18627    101218.7
  16099.984 0.0331054  -1.18902    100127.7
  16119.917 0.0393754  -1.19172   98872.703
  16122.670 0.0417544  -1.19201   98753.703
  16125.079 0.0449829  -1.19228   98519.703
  16127.490 0.0500016   -1.192567   98529.703
  16129.901 0.0582802  -1.19288   98340.703
  16132.657 0.0790897  -1.19312   98082.703
  16135.069  0.12019  -1.19291   98089.703
  16137.483  0.207238  -1.1925   97831.703
  16139.897  0.375672  -1.19264   97784.703
  16142.657   0.6301902  -1.19248   97500.703
  16145.073  0.829223   -1.193389   97452.703
  16147.490  0.805236  -1.19465   97187.703
  16149.907  0.608873  -1.19484   97087.703
  16152.670  0.458318   -1.194918   96918.703
  16155.090  0.433207  -1.19505   193430.41
  16156.473  0.445679  -1.19532   193214.25
  16157.854  0.464083  -1.19559   193180.78
  16159.237  0.476478  -1.19589   193420.02
  16160.968  0.478316  -1.19617   193475.94
  16162.695  0.471504  -1.19633   193564.56
  16164.426  0.466287  -1.19658   193683.87
  16166.157  0.467936  -1.19665   194016.87
  16168.234  0.483647  -1.19683   194064.58
  16170.311  0.512098  -1.19725   193533.97
  16172.388  0.546979  -1.19734   194395.05
  16174.466  0.583632  -1.19768   196126.83
  16176.545  0.610891  -1.19802    197334.3
  16178.971  0.606377  -1.19849   197760.45
  16181.399  0.558546  -1.19877   198902.31
  16183.826  0.513205  -1.19888   199730.86
  16186.254  0.503065  -1.19908   200660.09
  16189.030  0.532327   -1.199457   201556.03
  16191.809  0.566222  -1.20012   202865.66
  16194.587  0.557115  -1.20066   203968.98
  16197.366  0.514437  -1.20104      205198
  16200.493  0.47501  -1.20135    206546.7
  16203.274  0.462381  -1.20166   208078.09
  16206.405  0.45544  -1.2022   209877.19
  16209.884  0.45159  -1.20254   211323.97
  16213.016  0.468684  -1.20295   212957.45
  16216.499    0.507575  -1.20341   214566.62
  16219.981  0.53634  -1.20398   216264.48
  16223.468  0.54441  -1.20443   217897.05
  16226.954  0.545292  -1.20493    219585.3
  16230.792  0.552513  -1.20546   221397.23
  16234.281  0.540491  -1.20596   222591.87
  16238.122  0.508753  -1.20643    223559.2
  16242.313  0.484632  -1.20722   225083.22
  16246.159  0.472747  -1.20751   227923.94
  16250.354   0.4658702  -1.20811   232209.34
  16254.553  0.457781  -1.20869   236040.44
  16258.753  0.458868   -1.209321   238818.23
  16262.957  0.469806  -1.2099   240558.72
  16267.162  0.47932  -1.21043   242258.91
  16271.719  0.496283  -1.21119   243948.78
  16276.280  0.511541  -1.21189   246689.34
  16280.844  0.51993  -1.21242   250308.59
  16285.760  0.511834  -1.21315   253453.55
  16290.328  0.488695  -1.21382    256395.2
  16295.252  0.466085  -1.21441   259126.53
  16300.179  0.461166  -1.21508   262286.56
  16305.459  0.465332  -1.21581   264776.28
  16310.392  0.473067  -1.21645   267762.69
  16315.680  0.482323  -1.21721   270716.81
  16320.972  0.472989  -1.21796   273531.62
  16326.268  0.460124  -1.21846   276510.09
  16331.564  0.46798  -1.21915   279760.28
  16337.221  0.478151  -1.21998   282408.19
  16342.881   0.4811012  -1.22084   285661.75
  16348.544  0.487436  -1.22163   288822.03
  16354.211  0.481673  -1.22247   292040.97
  16360.238  0.462653  -1.22332   295424.62
  16365.914   0.4470974  -1.22407   298397.97
  16371.948  0.448464  -1.22494      301462
  16377.989  0.458813   -1.225793   304806.75
  16384.389  0.460539  -1.22675   308255.16
  16390.438  0.464463   -1.227559   311789.28
  16396.848  0.470173   -1.228469   314844.09
  16403.262  0.462345  -1.22935   318441.59
  16409.684  0.453598  -1.2303   321958.81
  16416.107  0.449405  -1.23118   325383.69
  16422.895  0.453064  -1.23214   328571.28
  16429.332  0.451596  -1.23299   332781.56
  16436.129  0.438289  -1.23396   335690.53
  16443.291  0.435089  -1.23496   339158.19
  16450.104  0.437066  -1.23588   342602.53
  16457.277  0.451196  -1.23688   345956.59
  16464.100  0.466441  -1.23781   349284.31
  16471.289  0.456892  -1.23889   352973.75
  16478.842   0.4348204  -1.24001   356566.87
  16486.043  0.427776  -1.241   359516.69
  16493.611  0.428974  -1.24208   362610.22
  16500.826  0.428927  -1.24306   365877.41
  16508.406  0.434068  -1.24409   369506.31
  16516.357  0.432765  -1.24523   372718.91
  16523.953  0.429239  -1.24622   376428.19
  16531.920  0.427747  -1.24733   379506.16
  16539.531  0.431719  -1.24834   383716.84
  16547.875  0.43119  -1.24953   386529.19
  16555.863  0.427387  -1.25062   389206.25
  16563.859  0.422825  -1.25174      393086
  16572.230  0.417643  -1.25288   396073.44
  16580.607  0.410792   -1.254041   398932.59
  16588.992  0.409386  -1.25517   402311.41
  16597.387  0.415505  -1.2563   405014.94
  16605.793  0.416497  -1.25739   407638.16
  16614.570  0.414418  -1.25862   410762.06
  16622.992  0.412582  -1.25975   413206.66
  16631.789  0.408238  -1.26093   416151.94
  16640.963  0.400155  -1.26215   419604.94
  16649.779  0.39953  -1.26331   422848.59
  16658.604  0.407199  -1.26448   425200.97
  16667.809  0.404684  -1.26572   427982.03
  16677.021  0.396295  -1.26693   430902.81
  16686.246  0.392155  -1.2681   432709.25
  16695.480  0.389276  -1.2693   435555.41
  16705.096  0.394145   -1.270565   437479.22
  16714.723  0.394982  -1.27181   438631.75
  16723.990   0.3886632  -1.27303   442608.97
  16733.639  0.384331  -1.27421   445161.91
  16743.670  0.383253  -1.27548    446812.5
  16753.342  0.382602  -1.27674   448881.81
  16763.396  0.382475   -1.278071   450607.81
  16773.094  0.380325  -1.27929    452693.5
  16783.174  0.374982  -1.28059   454747.87
  16793.641  0.372645  -1.2819   455926.94
  16803.746  0.3697   -1.283191   457889.72
  16813.863  0.368914   -1.284297   459221.16
  16824.369  0.371455  -1.28563   463615.31
  16834.887  0.36634  -1.28696   464064.16
  16845.420  0.365172  -1.28827   466100.72
  16855.965  0.364076  -1.28961   466905.94
  16866.525  0.357927  -1.29092   468137.87
  16877.477  0.355528  -1.29224   469605.47
  16888.441  0.354747  -1.29368   470026.78
  16899.041  0.353343  -1.29506   471527.78
  16910.416  0.352247  -1.29641    472425.5
  16921.424  0.349752  -1.2978   474025.87
  16932.447  0.346651  -1.29916   474548.97
  16943.865  0.344331  -1.30062   475501.72
  16955.301  0.343831  -1.302   476546.19
  16966.371  0.34323  -1.30342   477108.37
  16977.836  0.338086  -1.30486   477630.22
  16989.699   0.3332592  -1.3063   477750.75
  17001.197  0.331579  -1.30772      479522