File: data/Sr/SrTiO3_rt_01.xdi
# XDI/1.0 EXAFS Data Collector 1.1 AD.RGN
# Column.1: energy eV
# Column.2: mutrans
# Column.3: mufluor
# Column.4: murefer
# Column.5: i0
# Beamline.name: SSRL 4-3
# Detector.I0: N2 15cm
# Detector.I1: N2+Ar 30cm
# Detector.If: Ar (Lytle detector, using Rb filter)
# Detector.I2: Ar
# Element.edge: K
# Element.symbol: Sr
# Mono.d_spacing: 1.920128
# Mono.name: Si(220)
# Mono.notes: (?) unfocussed, detuned 50%, clockwise at E=17000eV
# Sample.formula: SrTiO3
# Sample.name: strontium titanate
# Sample.prep: powder
# Sample.reference: SrCO3
# Sample.temperature: room temperature
# Scan.start_time: 1995-06-14 20:43:05
# ///
#    Note: mono d_spacing is nominal!
#-------------
#   energy   mutrans      mufluor     murefer      i0
  15699.933  -1.6204   0.3640663   1.03712   231218.59
  15719.844  -1.62913  0.354932   1.03919   229209.59
  15740.136  -1.63786  0.346402   1.0412   227215.59
  15760.152  -1.66054  0.338979    1.057007   222110.59
  15779.891  -1.65475  0.328138   1.04497   223405.59
  15800.011  -1.66494  0.31957   1.04846   221137.59
  15819.854  -1.67301  0.311163   1.04995   219357.59
  15840.076  -1.68381  0.301943   1.05405   216997.59
  15860.021  -1.69265  0.294518   1.05641   214940.59
  15880.018  -1.69781  0.286688   1.05485   213032.59
  15900.063  -1.70216  0.279913   1.0526   210786.59
  15920.164  -1.70638  0.273229   1.05034   208425.59
  15939.978  -1.71071  0.268635   1.04814   206216.59
  15959.844  -1.71487  0.264205    1.045915   203958.59
  15980.097  -1.71922  0.261158   1.0437   202072.59
  16000.064  -1.72339  0.261103   1.04133   199901.59
  16020.082  -1.7275  0.263263   1.03921   197623.59
  16040.152  -1.73129  0.2686   1.03686   195442.59
  16059.933   -1.734855  0.280234   1.03473   193327.59
  16080.104    -1.73781  0.306477   1.03266   190956.59
  16099.984  -1.7389  0.36977   1.03086   188776.59
  16119.917  -1.73014  0.618676   1.03061   186420.59
  16122.670  -1.72623  0.698558   1.03099   186336.59
  16125.079   -1.720523  0.809588   1.03171   185779.59
  16127.490  -1.71071   1.00071   1.03325   185795.59
  16129.901  -1.69137   1.36191   1.03667   185443.59
  16132.657   -1.640703   2.27114   1.04661   184988.59
  16135.069  -1.54599   3.85859    1.065054   184698.59
  16137.483  -1.38879   6.18719   1.08972   184420.59
  16139.897  -1.1833   7.54057   1.11815   184115.59
  16142.657 -0.973109   7.56578   1.14759   183502.59
  16145.073 -0.955432   7.58079    1.153317   183139.59
  16147.490  -1.0805   7.59875   1.14064   182706.59
  16149.907   -1.211909   7.60235   1.12543   182619.59
  16152.670  -1.26974    7.533608   1.11286   182037.59
  16155.090  -1.259   7.6436   1.10676   363405.19
  16156.473  -1.24896   7.64788   1.10453   363155.06
  16157.854  -1.24136   7.65743   1.10264   362962.69
  16159.237  -1.23925    7.662976   1.10156   363098.06
  16160.968  -1.24297   7.67748   1.10119   363029.19
  16162.695  -1.24597   7.68684   1.10195   363343.06
  16164.426  -1.24098   7.70313   1.10376   363534.66
  16166.157  -1.22893   7.73125   1.10597   363307.03
  16168.234  -1.20586   7.7606   1.10805   363198.12
  16170.311  -1.17719   7.77236   1.10996      364087
  16172.388  -1.14938   7.76998   1.11201   365811.59
  16174.466  -1.13094   7.75987   1.11428   368077.94
  16176.545   -1.131969   7.77931   1.11599   369074.03
  16178.971  -1.15922   7.78872   1.11752   370758.87
  16181.399  -1.19292   7.80556   1.1185   372215.47
  16183.826  -1.20591   7.82472   1.1186   373728.81
  16186.254  -1.19229   7.84019   1.11768   375583.91
  16189.030   -1.167032   7.85818   1.11447   377482.75
  16191.809  -1.1652   7.86898   1.11021   379892.34
  16194.587  -1.19193   7.89599   1.10713   381682.69
  16197.366   -1.223719   7.90473   1.1054   384517.75
  16200.493   -1.245102   7.92688    1.104055   386796.59
  16203.274  -1.25361   7.83765   1.1029   389493.16
  16206.405  -1.25793   7.7964   1.10249    392453.5
  16209.884  -1.24922   7.92635   1.10345   395137.56
  16213.016  -1.22651   8.00405   1.10456   398200.37
  16216.499  -1.2009   8.02327   1.10496   401426.94
  16219.981   -1.188342   8.05238   1.10467   404268.28
  16223.468  -1.1845   8.08156    1.104503   407295.34
  16226.954  -1.18016   8.1224   1.10434   409878.16
  16230.792  -1.1839   8.18032   1.10383   411697.72
  16234.281  -1.20205   8.21596    1.103879      414779
  16238.122  -1.22292   8.25831   1.10382   417843.06
  16242.313  -1.23766   8.13629   1.10277   422810.87
  16246.159  -1.24605    8.059196   1.10126   428356.41
  16250.354  -1.25324    7.996073   1.09947   433666.72
  16254.553  -1.25639    7.986207   1.0988   439206.78
  16258.753  -1.25085   8.07321   1.09783   443742.56
  16262.957  -1.24377   8.16774   1.09705   446678.09
  16267.162  -1.23523   8.27899   1.09648   450520.41
  16271.719  -1.22374   8.41238    1.095808   455286.44
  16276.280  -1.21714   8.41688   1.09519   461133.22
  16280.844  -1.21852   8.43718   1.09492   466520.75
  16285.760  -1.23103   8.39163   1.09499   472876.03
  16290.328  -1.2453   8.23415   1.0948   477706.06
  16295.252  -1.25425    8.143957     1.09413   483022.84
  16300.179  -1.25553   8.15007   1.09345   488030.34
  16305.459  -1.2534   8.19768   1.09327   493440.62
  16310.392  -1.24863   8.2762   1.09292   498251.66
  16315.680  -1.24796   8.30231   1.09205   503628.41
  16320.972  -1.25413   8.24234   1.09115   508556.94
  16326.268  -1.25536   8.25016   1.09019   514441.19
  16331.564  -1.25117   8.32357   1.08913   520206.22
  16337.221  -1.25085   8.34762   1.08807   525713.94
  16342.881  -1.25074   8.37072   1.08712    530948.5
  16348.544  -1.25074   8.3885   1.08627   537369.75
  16354.211  -1.25797   8.31627   1.08569   542703.75
  16360.238  -1.26852    8.208952   1.08548    548525.5
  16365.914  -1.2738   8.16394   1.08524      554021
  16371.948  -1.27132    8.222057   1.08468   559471.25
  16377.989  -1.2681   8.28535   1.08372   565733.19
  16384.389  -1.2679   8.31417   1.08262   571075.94
  16390.438  -1.26641   8.35819    1.081639   577421.44
  16396.848  -1.26804   8.3614   1.08059   583502.69
  16403.262  -1.27379   8.31471   1.07978   589990.69
  16409.684  -1.2786   8.28183   1.07909   595746.37
  16416.107  -1.28075   8.28156     1.07833   601052.87
  16422.895  -1.28202    8.292299   1.07733   607253.12
  16429.332  -1.28635   8.25987    1.076353   614047.06
  16436.129  -1.29085   8.23389   1.07543   620109.81
  16443.291  -1.29119   8.26232   1.0745   625082.25
  16450.104  -1.28984   8.30734   1.07381    631748.5
  16457.277  -1.28625   8.37976   1.07303   636815.44
  16464.100  -1.28602    8.409787    1.072277   643434.19
  16471.289  -1.29232   8.35837   1.07132   649980.62
  16478.842  -1.29904   8.30391   1.07041   656036.87
  16486.043   -1.301632   8.29956   1.06947   661706.81
  16493.611  -1.30377   8.3058   1.06849    667604.5
  16500.826  -1.30545   8.31654   1.0675   673908.94
  16508.406  -1.30653   8.33112   1.06651   679328.19
  16516.357  -1.30876   8.33621   1.06549   686021.12
  16523.953  -1.31077   8.34031   1.06458   692417.81
  16531.920  -1.31175   8.36308   1.06365   697337.25
  16539.531  -1.31274   8.38024   1.0627   702407.44
  16547.875  -1.31561   8.38015   1.06164   708467.37
  16555.863  -1.31842   8.37496   1.06062   713861.06
  16563.859   -1.321461   8.37142   1.05961    719886.5
  16572.230  -1.32513   8.35962   1.0586   723797.69
  16580.607   -1.328474   8.35395   1.05757   730617.62
  16588.992  -1.33028   8.36733   1.05646   734890.31
  16597.387   -1.331713   8.38254   1.0554   740140.75
  16605.793  -1.33363   8.39308    1.054351   744664.94
  16614.570  -1.33585   8.40051   1.05332   750927.81
  16622.992  -1.33815   8.40574   1.05229    755239.5
  16631.789  -1.34135   8.4018   1.05116   759641.94
  16640.963   -1.344668   8.39929   1.05003   765162.06
  16649.779  -1.34672   8.41016   1.04896      769717
  16658.604  -1.34873   8.42273   1.04788   774229.69
  16667.809  -1.35194   8.42047   1.04676   778450.06
  16677.021  -1.35515   8.41839   1.04566   783336.25
  16686.246  -1.3579   8.41863   1.04454   787799.12
  16695.480  -1.36027   8.42941   1.04345   791205.81
  16705.096  -1.36229   8.44545   1.0422   794633.19
  16714.723  -1.36516   8.4473   1.04102   797417.31
  16723.990  -1.36797   8.45089   1.03991   802558.25
  16733.639  -1.3709   8.45248   1.03873   805778.87
  16743.670  -1.37379   8.46246   1.03753   809328.25
  16753.342   -1.376492   8.46691   1.03633   814108.44
  16763.396   -1.379263   8.47277   1.03511   815922.31
  16773.094  -1.38231   8.47314   1.03392   818576.94
  16783.174  -1.38534   8.48021   1.03269   821548.31
  16793.641    -1.38835   8.48765   1.03141   824227.44
  16803.746  -1.39098   8.4938   1.03011   826477.31
  16813.863  -1.39341   8.50117   1.0291   823841.94
  16824.369  -1.39638   8.50986   1.02775   831587.31
  16834.887  -1.39952     8.51416   1.02646   833105.44
  16845.420  -1.40241   8.52037   1.02517   834423.31
  16855.965  -1.40553   8.52427   1.02389   836710.94
  16866.525  -1.40873   8.52796   1.02267   839019.31
  16877.477  -1.41177   8.53396    1.021346   840220.37
  16888.441  -1.41474   8.53957   1.02005   841123.25
  16899.041  -1.41759   8.54808   1.01873   843491.87
  16910.416  -1.4207   8.55541   1.01751   843559.25
  16921.424  -1.42365   8.56466   1.01625   843964.31
  16932.447  -1.4268   8.57046   1.01497   844147.19
  16943.865  -1.42996   8.57499   1.01365   844945.81
  16955.301  -1.43306   8.58412   1.01222   845779.12
  16966.371  -1.43612   8.58985   1.01097   844643.25
  16977.836  -1.4393   8.59222   1.00959   844063.06
  16989.699   -1.442568   8.59874   1.00824   842074.69
  17001.197  -1.44574     8.60025   1.00699      841716