File: data/Sr/SrTiO3_rt_02.xdi
# XDI/1.0 EXAFS Data Collector 1.1 AD.RGN
# Column.1: energy eV
# Column.2: mutrans
# Column.3: mufluor
# Column.4: murefer
# Column.5: i0
# Beamline.name: SSRL 4-3
# Detector.I0: N2 15cm
# Detector.I1: N2+Ar 30cm
# Detector.If: Ar (Lytle detector, using Rb filter)
# Detector.I2: Ar
# Element.edge: K
# Element.symbol: Sr
# Mono.d_spacing: 1.920128
# Mono.name: Si(220)
# Mono.notes: (?) unfocussed, detuned 50%, clockwise at E=17000eV
# Sample.formula: SrTiO3
# Sample.name: strontium titanate
# Sample.prep: powder
# Sample.reference: SrCO3
# Sample.temperature: room temperature
# Scan.start_time: 1995-06-14 20:43:05
# ///
#    Note: mono d_spacing is nominal!
#-------------
#   energy   mutrans      mufluor     murefer      i0
  15699.933  -1.62732  0.340532   1.07802   219065.59
  15719.844   -1.631948  0.332652   1.07578   216691.59
  15740.136  -1.63678  0.323798    1.073418   214565.59
  15760.152  -1.64168  0.317159   1.07107   209443.59
  15779.891  -1.64612  0.30681    1.068867   210403.59
  15800.011  -1.65099  0.299079   1.06649   208088.59
  15819.854  -1.65565  0.291776   1.0642   206198.59
  15840.076  -1.66041  0.282685   1.06191   204018.59
  15860.021  -1.66509  0.276048   1.0596   201830.59
  15880.018  -1.66979  0.269509   1.05726   199506.59
  15900.063  -1.67454  0.264093   1.05482   197441.59
  15920.164  -1.6792  0.257862   1.05253   195231.59
  15939.978   -1.683811   0.2533595   1.05016   193183.59
  15959.844  -1.68836  0.249473   1.04794   190733.59
  15980.097  -1.693    0.248147   1.04553   188613.59
  16000.064  -1.69748  0.247725   1.04314   186605.59
  16020.082  -1.70199  0.2505   1.04085   184494.59
  16040.152  -1.70611  0.256328   1.03844   182176.59
  16059.933  -1.71007   0.2681357   1.03621   180031.59
  16080.104  -1.71345  0.295244   1.03398   177754.59
  16099.984  -1.71482  0.356991   1.03213   175673.59
  16119.917  -1.7063  0.600606    1.031858   173429.59
  16122.670  -1.70273  0.678404   1.03232   173029.59
  16125.079  -1.69729  0.788284   1.03293   172767.59
  16127.490  -1.68775  0.971141   1.03459   172553.59
  16129.901  -1.66879   1.32252   1.03779   172500.59
  16132.657  -1.61908   2.19796   1.04772   172141.59
  16135.069  -1.52601   3.73399   1.06605   171761.59
  16137.483  -1.37162   5.98398   1.09064   171308.59
  16139.897  -1.16582   8.11414   1.11963   171106.59
  16142.657 -0.952277   8.124   1.15019   170899.59
  16145.073 -0.931068   8.13694   1.15632   170627.59
  16147.490  -1.055   8.15476   1.14362   170254.59
  16149.907  -1.18805   8.02894   1.12776   169708.59
  16152.670  -1.24826    7.369626   1.11484   169589.59
  16155.090  -1.23802   7.52786   1.10849   338490.19
  16156.473  -1.22814   7.65127   1.10634   337899.06
  16157.854  -1.22071   7.73773    1.104522   338100.69
  16159.237  -1.2187   7.75955   1.10333   338292.06
  16160.968  -1.22271   7.71519   1.10287   338331.19
  16162.695  -1.22596   7.688    1.103562   339209.06
  16164.426   -1.221628   7.75948   1.10526   339817.66
  16166.157  -1.20991   7.91776   1.10744   339249.03
  16168.234  -1.18722   8.20192   1.10965   339399.12
  16170.311  -1.15896   8.31754   1.1114      340229
  16172.388  -1.13123   8.31723   1.11365   341748.59
  16174.466   -1.112319   8.30403   1.11596   343963.94
  16176.545  -1.11329   8.31353   1.11762   345364.03
  16178.971  -1.14066   8.32476   1.11899   346891.87
  16181.399  -1.17482   8.34512   1.12007   348363.47
  16183.826  -1.18854   8.22445   1.12001   349604.81
  16186.254  -1.17539   8.37851   1.11907   351653.91
  16189.030  -1.15018   8.39215   1.11602   353470.75
  16191.809  -1.14793   8.41166   1.11177   355389.34
  16194.587  -1.17458   8.40673   1.10844   357572.69
  16197.366  -1.20682   8.04227   1.10671   359916.75
  16200.493   -1.228787   7.80215   1.10527   362059.59
  16203.274  -1.23757    7.708747   1.10407   365081.16
  16206.405    -1.24243   7.66875   1.10362    367229.5
  16209.884  -1.23394   7.80169   1.10461   370184.56
  16213.016  -1.21165   8.09395    1.105595   373030.37
  16216.499  -1.18619   8.40844   1.10599   375894.94
  16219.981  -1.17354   8.56148   1.10579   378584.28
  16223.468   -1.169811   8.61841   1.10559   381455.34
  16226.954  -1.1658   8.68062    1.105335   383661.16
  16230.792  -1.1694   8.65822   1.1049   385522.72
  16234.281  -1.18772   8.44017   1.10482      387840
  16238.122  -1.20887   8.18864   1.10478   391567.06
  16242.313  -1.2239   8.02009    1.103575   396003.87
  16246.159  -1.23267   7.94537   1.1021   401783.41
  16250.354  -1.24006    7.887604   1.10045   407585.72
  16254.553  -1.24331   7.87687   1.09884   413055.78
  16258.753  -1.23815   7.96423   1.09883   416663.56
  16262.957  -1.23114   8.05933   1.09762   419927.09
  16267.162   -1.222828   8.17142   1.0971   423604.41
  16271.719  -1.2115   8.32562   1.09638   428120.44
  16276.280  -1.20499   8.42812   1.09574   433293.22
  16280.844  -1.20647   8.4297   1.0954   438416.75
  16285.760  -1.21921   8.29488   1.09549   444080.03
  16290.328  -1.23369   8.13551   1.09522   449246.06
  16295.252  -1.24293   8.04982   1.09454   454284.84
  16300.179  -1.24435   8.05769   1.09384   458644.34
  16305.459  -1.24237   8.10673    1.093621   463834.62
  16310.392   -1.237849   8.18268    1.093183   468599.66
  16315.680  -1.23723   8.2124   1.09235   473532.41
  16320.972  -1.24365   8.15691   1.09139   479679.94
  16326.268  -1.24511   8.16667   1.09049   484545.19
  16331.564  -1.24103   8.23938   1.08936   490133.22
  16337.221  -1.241   8.26176   1.0883   495061.97
  16342.881  -1.24102   8.28974   1.08735   500474.47
  16348.544  -1.2412   8.30692   1.08644   505723.72
  16354.211   -1.248673   8.24481   1.08591   511441.72
  16360.238  -1.25933    8.140885   1.08567   515993.47
  16365.914  -1.26479    8.099375    1.085444   522190.97
  16371.948  -1.26253   8.15789   1.08486   527604.25
  16377.989  -1.25947   8.22272     1.08384   533966.19
  16384.389  -1.2594   8.25067   1.08276   539360.94
  16390.438  -1.258   8.29597   1.08173   544909.44
  16396.848  -1.2599    8.298476   1.08067   550603.69
  16403.262  -1.26581   8.25778   1.07988   556368.69
  16409.684  -1.27081   8.22077   1.0792   561300.37
  16416.107  -1.27312    8.225888   1.07845   566386.87
  16422.895  -1.27454   8.23687   1.0774   572794.12
  16429.332  -1.27903   8.21103   1.07638   578088.06
  16436.129  -1.28374   8.18145   1.07553   584280.81
  16443.291  -1.28433   8.20906   1.07463   589746.25
  16450.104  -1.2831   8.25626    1.073894    595726.5
  16457.277  -1.27973   8.33082   1.07313   600484.44
  16464.100  -1.27969   8.3601   1.07235   606081.19
  16471.289  -1.28617   8.3126   1.07147   612340.62
  16478.842  -1.29309   8.25862   1.0705   617427.87
  16486.043  -1.29582   8.25738   1.06946   623809.81
  16493.611  -1.29805   8.26408   1.0685    629420.5
  16500.826  -1.29989   8.27182   1.06758   635356.94
  16508.406  -1.30108   8.29009   1.06658   641296.19
  16516.357  -1.3035   8.29687   1.06551   646600.12
  16523.953  -1.30562   8.30291   1.06455   652395.81
  16531.920  -1.30671   8.32709   1.06362   657472.25
  16539.531   -1.307793   8.34552   1.06261   662713.44
  16547.875  -1.31077   8.34521   1.06163   667633.37
  16555.863  -1.31376   8.34427   1.06053   672889.06
  16563.859   -1.316819   8.3398   1.05953    680192.5
  16572.230  -1.32059   8.32896   1.05849   685429.69
  16580.607  -1.324   8.32358   1.05748   690253.62
  16588.992  -1.32591   8.33854   1.05638   695002.31
  16597.387  -1.32745   8.35544   1.05534   699984.75
  16605.793  -1.32939   8.36805   1.05431   703620.94
  16614.570  -1.33172   8.3758   1.05332   709140.81
  16622.992   -1.334185   8.38253   1.05231    713216.5
  16631.789  -1.33751   8.37834   1.05121   718306.94
  16640.963  -1.34096   8.37741   1.05007   722820.06
  16649.779  -1.34311   8.38665   1.04899      727322
  16658.604    -1.34526   8.4008   1.04789   731177.69
  16667.809  -1.34855   8.39878   1.04677   736089.06
  16677.021    -1.35188   8.39519   1.04566   739788.25
  16686.246   -1.354759   8.39967   1.04449   743758.12
  16695.480  -1.35709   8.4118   1.04337   748128.81
  16705.096  -1.35924   8.42784   1.04216   751382.19
  16714.723  -1.3622   8.43213   1.04094   752894.31
  16723.990   -1.365109   8.4322   1.03988   758738.25
  16733.639  -1.3682   8.43529   1.03875   761369.87
  16743.670  -1.37118   8.4432   1.03754   764983.25
  16753.342  -1.37401   8.44703   1.03638   768327.44
  16763.396  -1.37695   8.45488   1.03517   770301.31
  16773.094  -1.38005   8.45625   1.03397   772675.94
  16783.174  -1.38316   8.46065   1.03273   775743.31
  16793.641  -1.38612   8.46806   1.03148   778928.44
  16803.746  -1.3889   8.47482   1.03017   779798.31
  16813.863  -1.39149   8.48536   1.02922   777882.94
  16824.369  -1.39457   8.49323   1.02783   785356.31
  16834.887  -1.39778   8.49647   1.02656   786291.44
  16845.420  -1.40071   8.50687    1.025316   789149.31
  16855.965  -1.40385   8.5109   1.02406   790818.94
  16866.525  -1.40708   8.51387   1.02279   792082.31
  16877.477  -1.41028   8.51812   1.02155   792116.37
  16888.441  -1.41339   8.52745   1.02029   793443.25
  16899.041  -1.41644   8.53284   1.01907   793605.87
  16910.416  -1.41949   8.53908    1.017738   794173.25
  16921.424  -1.42243   8.54896   1.01646   794689.31
  16932.447  -1.42559   8.55338   1.01515   795608.19
  16943.865  -1.42884   8.55877   1.01385   795616.81
  16955.301  -1.43202   8.56588   1.01247   793519.12
  16966.371  -1.43516   8.57196   1.01128   795127.25
  16977.836  -1.43849   8.57787   1.01001   795163.06
  16989.699  -1.44185   8.5845    1.008631   793744.69
  17001.197  -1.44489   8.59237   1.00728      794251