File: data/Sr/SrTiO3_10K_02.xdi
# XDI/1.0 EXAFS Data Collector 1.1 AD.RGN
# Column.1: energy eV
# Column.2: mutrans
# Column.3: murefer
# Column.4: i0
# Beamline.name: SSRL 4-3
# Detector.I0: N2 15cm
# Detector.I1: N2+Ar 30cm
# Detector.I2: Ar
# Element.edge: K
# Element.symbol: Sr
# Mono.d_spacing: 1.920128
# Mono.name: Si(220)
# Mono.notes: (?) unfocussed, detuned 50%, clockwise at E=17000eV
# Sample.formula: SrTiO3
# Sample.name: strontium titanate
# Sample.prep: powder
# Sample.reference: SrCO3
# Sample.temperature: 10K
# Scan.start_time: 1995-06-16 03:59:08
# ///
#    Note: mono d_spacing is nominal!
#-------------
#   energy   mutrans      murefer      i0
  15699.933    1.912247  -1.11676   68164.703
  15719.844     1.90731  -1.11968   67404.703
  15740.136    1.902005  -1.12244   66699.703
  15760.152   1.89592  -1.12543   65116.699
  15779.891   1.89104  -1.12813   65501.699
  15800.011   1.88604  -1.13105   64680.699
  15819.854   1.8813  -1.13358   64066.699
  15840.076   1.87617  -1.13647   63359.699
  15860.021   1.87092  -1.13934   62664.699
  15880.018   1.86593  -1.14355   61880.699
  15900.063   1.86274  -1.14578   61277.699
  15920.164   1.85818  -1.1487   60601.699
  15939.978   1.8533  -1.15163   59891.699
  15959.844   1.84835  -1.15485   59132.699
  15980.097    1.843376   -1.157909   58510.699
  16000.064   1.8385  -1.16084   57817.699
  16020.082   1.83334  -1.16367   57169.699
  16040.152    1.829279  -1.1667   56470.699
  16059.933   1.82478  -1.16951   55770.699
  16080.104   1.82079  -1.17239   55054.699
  16099.984   1.81798  -1.1754   54339.699
  16119.917   1.82175  -1.17811   53660.699
  16122.670   1.82383  -1.17811   53617.699
  16125.079   1.82741   -1.178325   53635.699
  16127.490   1.83336   -1.178628   53542.699
  16129.901   1.84474  -1.17919   53434.699
  16132.657   1.87666  -1.17961   53325.699
  16135.069   1.93515  -1.17928   53206.699
  16137.483   2.07156  -1.17895   53204.699
  16139.897   2.24891  -1.17875   53018.699
  16142.657   2.47483  -1.17724   52973.699
  16145.073   2.47269  -1.17709   52919.699
  16147.490   2.28136  -1.17823   52818.699
  16149.907   2.15558  -1.1797   52679.699
  16152.670   2.12271  -1.18071   52571.699
  16155.090   2.15288  -1.18102    105127.4
  16156.473   2.1695  -1.18083   105040.25
  16157.854   2.17322  -1.18106   104998.79
  16159.237   2.16694  -1.18121   105104.02
  16160.968   2.1593  -1.18148   105093.95
  16162.695   2.15624  -1.18172   105239.56
  16164.426   2.15732  -1.1819   105427.88
  16166.157   2.16935  -1.18254   105613.88
  16168.234   2.19892  -1.18243   105512.58
  16170.311   2.22067  -1.18232   105381.97
  16172.388   2.24443  -1.18259   105866.05
  16174.466   2.2763  -1.1827   106902.83
  16176.545   2.2771  -1.18308    107186.3
  16178.971   2.23533  -1.18349   107607.45
  16181.399   2.19  -1.18414   108099.31
  16183.826   2.17866  -1.18461   108731.86
  16186.254   2.19782  -1.18474    109298.1
  16189.030   2.2346  -1.18516   109862.03
  16191.809   2.23654  -1.18563   110569.66
  16194.587   2.2  -1.18599   111192.98
  16197.366   2.16568  -1.18681   111944.99
  16200.493   2.15063  -1.18721    112635.7
  16203.274   2.14667  -1.18779    113567.1
  16206.405   2.14004  -1.18822   114352.19
  16209.884   2.14564   -1.188561   115091.98
  16213.016   2.17192  -1.18883   116140.45
  16216.499   2.20061  -1.18883   116955.62
  16219.981   2.21279  -1.18926   117956.48
  16223.468   2.21101  -1.19002   118910.05
  16226.954   2.21459  -1.19028    119915.3
  16230.792   2.21453  -1.19086   120403.23
  16234.281   2.18907  -1.19151   120810.87
  16238.122   2.16818  -1.19204    121299.2
  16242.313   2.16056  -1.19274   122193.22
  16246.159   2.15524  -1.19317   124134.94
  16250.354   2.14473   -1.193743   126532.34
  16254.553   2.13727  -1.1945   128631.45
  16258.753    2.144798  -1.19519   129820.23
  16262.957   2.14997  -1.19561   130683.73
  16267.162   2.15899  -1.19601   131614.91
  16271.719   2.17705  -1.19649   132748.78
  16276.280   2.18558  -1.19689   134272.34
  16280.844   2.18615  -1.19725   136210.59
  16285.760   2.16973  -1.19823   138071.55
  16290.328   2.14966  -1.19912    139761.2
  16295.252   2.13544  -1.20005   141210.53
  16300.179   2.13709  -1.20075   142766.56
  16305.459   2.1401  -1.20137   144243.28
  16310.392   2.14825  -1.20187    145823.7
  16315.680   2.15052  -1.20291   147473.81
  16320.972   2.13706  -1.20369   149121.61
  16326.268   2.13176  -1.20428   150879.11
  16331.564   2.14174  -1.20516    152518.3
  16337.221   2.14421  -1.20525   154292.17
  16342.881   2.14584  -1.20573   155921.75
  16348.544   2.14882   -1.206403   157837.02
  16354.211   2.1383  -1.20735   159442.98
  16360.238   2.12113  -1.20774   161111.62
  16365.914   2.11158  -1.20868   163061.97
  16371.948   2.11674  -1.20982   164836.02
  16377.989   2.12255  -1.21056   166647.75
  16384.389   2.12132  -1.21161   168516.17
  16390.438   2.12695  -1.21285    170554.3
  16396.848   2.12748   -1.214194   172308.09
  16403.262    2.118293  -1.21492   174240.61
  16409.684   2.11143  -1.21586    175903.8
  16416.107   2.10959  -1.21691   177860.69
  16422.895   2.11232  -1.2177   179779.27
  16429.332   2.10611  -1.21865   181639.55
  16436.129   2.0948  -1.21988   183567.52
  16443.291   2.09386  -1.2209   185354.17
  16450.104   2.09572  -1.22176   187157.53
  16457.277   2.10809  -1.22268   189141.58
  16464.100   2.11605  -1.2236   191115.31
  16471.289   2.10185  -1.22474   192950.75
  16478.842   2.08571  -1.22569   194684.87
  16486.043   2.08163  -1.22607    196643.7
  16493.611   2.08021  -1.22613    198236.2
  16500.826   2.0796  -1.22703   200129.42
  16508.406   2.0841  -1.22846   201925.31
  16516.357   2.08052  -1.22954   203567.91
  16523.953   2.07722   -1.230762   205586.19
  16531.920   2.07629  -1.23191   207004.17
  16539.531   2.07875  -1.23272   209227.84
  16547.875   2.07585  -1.23389    210999.2
  16555.863   2.07046  -1.2348   212448.25
  16563.859   2.06619  -1.2358      214683
  16572.230   2.0605  -1.23679   216050.45
  16580.607   2.05327  -1.23768   217917.58
  16588.992   2.05235   -1.238924   219779.41
  16597.387    2.055428  -1.2402   221775.94
  16605.793   2.05392  -1.24111   222834.14
  16614.570   2.05079   -1.242608   225055.05
  16622.992   2.04798  -1.24336   226486.66
  16631.789   2.0421  -1.2448   227815.94
  16640.963   2.03447  -1.24599   229430.92
  16649.779   2.0349  -1.24718   231076.61
  16658.604   2.0392  -1.24788   232133.98
  16667.809   2.03335  -1.24938   233720.05
  16677.021   2.02552  -1.25079    234874.8
  16686.246    2.021255  -1.25185   236564.25
  16695.480   2.01837  -1.25289   237937.39
  16705.096   2.0197  -1.25361   239866.23
  16714.723   2.01673  -1.25555   239852.77
  16723.990     2.01181  -1.25648   241877.98
  16733.639   2.00697  -1.25815   242897.91
  16743.670     2.00494  -1.25982   244017.52
  16753.342   2.00258  -1.26063   245194.81
  16763.396   1.99962  -1.26109    246275.8
  16773.094   1.99434  -1.26189   247179.48
  16783.174   1.98913  -1.26285   248306.87
  16793.641   1.98468  -1.26417   248780.94
  16803.746   1.98126  -1.26589    249255.7
  16813.863   1.97974  -1.2667   250009.17
  16824.369   1.98042  -1.26889   251143.33
  16834.887   1.97459  -1.27054   251389.17
  16845.420   1.97246  -1.2718    252287.7
  16855.965   1.96913  -1.27337   252583.94
  16866.525   1.96166  -1.27443   253605.86
  16877.477    1.958748  -1.2756   253548.48
  16888.441   1.95497  -1.27693   253881.78
  16899.041   1.95241  -1.2783    254251.8
  16910.416   1.95005  -1.28017   254580.48
  16921.424   1.94492  -1.28174   254983.87
  16932.447   1.942  -1.28314   255444.95
  16943.865   1.93799  -1.2842   255258.73
  16955.301   1.93475  -1.28539    255582.2
  16966.371   1.9321  -1.28702   255547.36
  16977.836    1.925118  -1.28765   255386.22
  16989.699   1.92055  -1.2891   255132.77
  17001.197   1.91832  -1.29106      255037