File: data/Sr/SrTiO3_10K_01.xdi
# XDI/1.0 EXAFS Data Collector 1.1 AD.RGN
# Column.1: energy eV
# Column.2: mutrans
# Column.3: murefer
# Column.4: i0
# Beamline.name: SSRL 4-3
# Detector.I0: N2 15cm
# Detector.I1: N2+Ar 30cm
# Detector.I2: Ar
# Element.edge: K
# Element.symbol: Sr
# Mono.d_spacing: 1.920128
# Mono.name: Si(220)
# Mono.notes: (?) unfocussed, detuned 50%, clockwise at E=17000eV
# Sample.formula: SrTiO3
# Sample.name: strontium titanate
# Sample.prep: powder
# Sample.reference: SrCO3
# Sample.temperature: 10K
# Scan.start_time: 1995-06-16 03:59:08
# ///
#    Note: mono d_spacing is nominal!
#-------------
#   energy   mutrans      murefer      i0
  15699.933   1.90302  -1.12276   71555.703
  15719.844   1.89831  -1.12553   70818.703
  15740.136     1.89299  -1.12742   70064.703
  15760.152   1.88773  -1.13032   68296.703
  15779.891   1.88291  -1.13234   68671.703
  15800.011    1.877761  -1.13481   67900.703
  15819.854   1.87275  -1.1379   67229.703
  15840.076   1.86794  -1.14012   66576.703
  15860.021   1.86292  -1.14269   65824.703
  15880.018   1.8574   -1.145418   65128.699
  15900.063   1.85281    -1.14824   64441.699
  15920.164   1.84847   -1.150879   63800.699
  15939.978   1.84353  -1.15366   63094.699
  15959.844   1.83861  -1.15643   62300.699
  15980.097   1.83429  -1.15957   61631.699
  16000.064   1.82951  -1.16228   61013.699
  16020.082   1.82449  -1.16489   60267.699
  16040.152   1.82012  -1.1678   59634.699
  16059.933   1.81616  -1.1706   58925.699
  16080.104   1.81229  -1.17368   58140.699
  16099.984   1.80904  -1.17631   57530.699
  16119.917   1.8128   -1.179443   56803.699
  16122.670   1.81508  -1.1796   56724.699
  16125.079   1.81804  -1.17976   56652.699
  16127.490   1.82384   -1.180121   56523.699
  16129.901   1.83484  -1.18036   56459.699
  16132.657    1.866797  -1.18075   56320.699
  16135.069   1.92529  -1.18067   56325.699
  16137.483    2.061786  -1.18034   56247.699
  16139.897   2.23872  -1.17961   56017.699
  16142.657   2.46648  -1.17911   55949.699
  16145.073   2.46333   -1.179043   55867.699
  16147.490   2.27109  -1.18008   55835.699
  16149.907   2.14535  -1.18116   55749.699
  16152.670    2.113301  -1.18224   55480.699
  16155.090   2.1435  -1.18228    110858.4
  16156.473   2.16037  -1.18234   110817.25
  16157.854   2.16367  -1.18249   110771.79
  16159.237   2.15701  -1.18283   110697.02
  16160.968   2.14934  -1.1831   110889.95
  16162.695   2.14606  -1.18314   110919.56
  16164.426   2.14695  -1.18311   111058.87
  16166.157   2.15908  -1.18359   111170.87
  16168.234   2.18859  -1.18373   111138.58
  16170.311   2.21014  -1.18391   111060.97
  16172.388   2.23405  -1.18399   111402.05
  16174.466   2.26574  -1.18436   112401.83
  16176.545   2.2665  -1.1844    112779.3
  16178.971   2.22492  -1.1852   113201.45
  16181.399   2.17987   -1.185798   113661.31
  16183.826   2.16846  -1.18627   114055.86
  16186.254   2.18712  -1.18631    114737.1
  16189.030   2.22346  -1.18656   115307.03
  16191.809   2.22565  -1.18696   116039.66
  16194.587   2.18988  -1.18775   116746.98
  16197.366   2.15422  -1.18826   117315.99
  16200.493    2.138153  -1.18859    118102.7
  16203.274   2.13453  -1.18916    119019.1
  16206.405   2.12728  -1.18934   119750.19
  16209.884   2.13262  -1.18976   120647.98
  16213.016   2.1587  -1.19016   121751.45
  16216.499   2.18745  -1.19027   122502.62
  16219.981   2.19919  -1.19111   123460.48
  16223.468   2.19753  -1.19152   124457.05
  16226.954    2.201284  -1.19186    125469.3
  16230.792   2.2003  -1.19238   126302.23
  16234.281   2.17424  -1.19302   126982.87
  16238.122    2.153212  -1.19363    127196.2
  16242.313   2.14581  -1.19434   128278.22
  16246.159   2.14053  -1.19494   129890.94
  16250.354   2.13034  -1.19533   132495.34
  16254.553   2.12215  -1.19582   134574.44
  16258.753   2.12943  -1.19601   135729.23
  16262.957   2.13537  -1.19657   136699.72
  16267.162   2.14423  -1.19712   137743.91
  16271.719   2.16124   -1.196988   138705.78
  16276.280   2.17021  -1.19776   140362.34
  16280.844    2.170949  -1.19814   142360.59
  16285.760   2.15506  -1.19893   143895.55
  16290.328   2.13533  -1.19972    145598.2
  16295.252   2.1214   -1.200526   147108.53
  16300.179   2.12233  -1.2014   148749.56
  16305.459   2.12496   -1.201894   150314.28
  16310.392   2.13239  -1.20244    151820.7
  16315.680   2.1351  -1.20311   153546.81
  16320.972   2.12192  -1.20409   155261.61
  16326.268   2.11692  -1.20522   156847.11
  16331.564   2.1264  -1.20585    158699.3
  16337.221   2.13042  -1.20686   160395.17
  16342.881    2.133312  -1.20744   162018.75
  16348.544   2.13627  -1.20807   163837.02
  16354.211   2.12737  -1.20925   165345.98
  16360.238   2.11066   -1.210084   167208.62
  16365.914   2.09976  -1.21082   169211.97
  16371.948   2.1056  -1.21177   170951.02
  16377.989   2.11151  -1.21237   172648.75
  16384.389   2.11008  -1.21327   174511.17
  16390.438   2.11437  -1.21381    176324.3
  16396.848   2.11457  -1.21456   178408.09
  16403.262   2.10528  -1.21559   180427.61
  16409.684    2.098203  -1.21629    182249.8
  16416.107   2.09638  -1.21725   184143.69
  16422.895   2.09952  -1.21817   185809.27
  16429.332   2.09398  -1.2193   187753.55
  16436.129   2.08302  -1.22016   189574.52
  16443.291   2.08205  -1.2212   191407.17
  16450.104   2.08365  -1.22191   193306.53
  16457.277    2.096475  -1.22285   195273.58
  16464.100   2.10394   -1.223228   197357.31
  16471.289   2.08965   -1.224533   199087.75
  16478.842   2.07327  -1.22563   200944.87
  16486.043   2.07048  -1.22694    202874.7
  16493.611   2.07023  -1.2278    204551.2
  16500.826    2.069233  -1.2282   206450.42
  16508.406   2.07213  -1.22928   208402.31
  16516.357   2.06805  -1.23026   210298.91
  16523.953   2.06422  -1.23119   212165.19
  16531.920   2.06318  -1.23233   213737.17
  16539.531   2.06571  -1.23328   215440.84
  16547.875   2.06339  -1.23436    217164.2
  16555.863   2.05815  -1.23552   218597.25
  16563.859   2.05432  -1.23652      220801
  16572.230   2.04982   -1.238024   222601.45
  16580.607   2.04077  -1.23793   224069.58
  16588.992   2.03959  -1.23877   225719.41
  16597.387   2.04245  -1.23973   227364.94
  16605.793   2.04087  -1.24077   228812.14
  16614.570   2.03821  -1.24184   230855.05
  16622.992   2.03479   -1.242588   232285.66
  16631.789   2.02914  -1.24379   233880.94
  16640.963   2.0217  -1.24528   235533.92
  16649.779   2.02225  -1.24657   237079.61
  16658.604    2.025129  -1.24747   238983.98
  16667.809   2.01855  -1.24832   240516.05
  16677.021   2.01058  -1.2493    241777.8
  16686.246   2.0059  -1.25084   243052.25
  16695.480   2.00332  -1.25234   244259.39
  16705.096   2.00605  -1.25351   245372.23
  16714.723   2.00103  -1.25464   246085.77
  16723.990   1.99637  -1.25601   248148.98
  16733.639   1.99211  -1.25732   249132.91
  16743.670   1.9901  -1.25882   250482.52
  16753.342   1.98831  -1.25996   251471.81
  16763.396   1.9865  -1.26146    252200.8
  16773.094   1.98142  -1.2624   253341.48
  16783.174   1.97666  -1.26368   254252.87
  16793.641   1.97228  -1.26479   254713.94
  16803.746   1.96709  -1.2659    255506.7
  16813.863   1.96613  -1.26718   256035.17
  16824.369    1.964493  -1.2681   257065.33
  16834.887   1.95863  -1.26946   257526.17
  16845.420   1.95725   -1.270861    258383.7
  16855.965   1.95445  -1.2723   258886.94
  16866.525   1.94781  -1.27373   259347.86
  16877.477   1.9445  -1.27556   259327.48
  16888.441   1.94074  -1.27645   259703.78
  16899.041   1.93831  -1.27742    260674.8
  16910.416   1.93611  -1.27907   260864.48
  16921.424   1.93099  -1.27996   261171.87
  16932.447   1.92636  -1.28114   262098.95
  16943.865   1.9223  -1.28261   261758.73
  16955.301   1.9202  -1.2843    261961.2
  16966.371   1.91692  -1.28565   262000.36
  16977.836   1.91061  -1.28657   262512.22
  16989.699   1.90459  -1.28792   262463.75
  17001.197   1.90213  -1.28909      261969