File: data/Sr/SrTiO3_10K_03.xdi
# XDI/1.0 EXAFS Data Collector 1.1 AD.RGN
# Column.1: energy eV
# Column.2: mutrans
# Column.3: murefer
# Column.4: i0
# Beamline.name: SSRL 4-3
# Detector.I0: N2 15cm
# Detector.I1: N2+Ar 30cm
# Detector.I2: Ar
# Element.edge: K
# Element.symbol: Sr
# Mono.d_spacing: 1.920128
# Mono.name: Si(220)
# Mono.notes: (?) unfocussed, detuned 50%, clockwise at E=17000eV
# Sample.formula: SrTiO3
# Sample.name: strontium titanate
# Sample.prep: powder
# Sample.reference: SrCO3
# Sample.temperature: 10K
# Scan.start_time: 1995-06-16 03:59:08
# ///
#    Note: mono d_spacing is nominal!
#-------------
#   energy   mutrans      murefer      i0
  15699.933   1.73502  -1.13779    131545.7
  15719.844   1.72812  -1.13982    130280.7
  15740.136   1.71947  -1.14173    129058.7
  15760.152    1.706769  -1.14411    125869.7
  15779.891   1.70455  -1.14575    126519.7
  15800.011   1.69666  -1.14775    125192.7
  15819.854   1.68888  -1.14985    123946.7
  15840.076   1.68146  -1.15193    122654.7
  15860.021   1.67369  -1.15409    121331.7
  15880.018   1.66564  -1.15608    120125.7
  15900.063    1.658065  -1.15813    118610.7
  15920.164   1.6502  -1.1605    117321.7
  15939.978    1.642646  -1.16268    115994.7
  15959.844   1.63471  -1.16486    114533.7
  15980.097   1.62746  -1.16711    113223.7
  16000.064   1.62032   -1.169418    112023.7
  16020.082   1.61256  -1.17159    110625.7
  16040.152   1.60517  -1.17386    109268.7
  16059.933   1.59754  -1.17628    107948.7
  16080.104   1.59046  -1.17869    106578.7
  16099.984   1.58531   -1.181175    105201.7
  16119.917   1.58684  -1.1836    103852.7
  16122.670   1.58943  -1.18397    103626.7
  16125.079   1.59159  -1.18394    103516.7
  16127.490   1.5984  -1.18445    103309.7
  16129.901   1.61033  -1.1847    103057.7
  16132.657   1.64576  -1.18498    102885.7
  16135.069   1.71053  -1.18522    102672.7
  16137.483     1.86332  -1.1858    102497.7
  16139.897   2.03769  -1.187    102411.7
  16142.657   2.2654  -1.18816    102007.7
  16145.073   2.21553  -1.18761    101930.7
  16147.490   2.0202  -1.18719    101736.7
  16149.907   1.90964  -1.1872    101531.7
  16152.670   1.88726  -1.18781    101112.7
  16155.090   1.91999  -1.18787   202132.41
  16156.473   1.93299  -1.18773   201654.25
  16157.854   1.93293  -1.18806   201812.78
  16159.237   1.92568  -1.18831   201832.02
  16160.968   1.91881  -1.18815   201887.94
  16162.695   1.91582  -1.1884   201842.56
  16164.426   1.91864  -1.18861   201905.87
  16166.157   1.93276  -1.18894   202217.87
  16168.234   1.96484  -1.18917   201328.58
  16170.311   1.98163    -1.18955   201457.97
  16172.388   2.01043  -1.18971   202787.05
  16174.466   2.03825  -1.18988   204243.83
  16176.545   2.03145   -1.190185    204965.3
  16178.971   1.98426  -1.19018   205549.45
  16181.399   1.94208  -1.19062   206276.31
  16183.826   1.93566  -1.19067   207058.86
  16186.254   1.95713  -1.19096   208349.09
  16189.030   1.99226  -1.19146   209567.03
  16191.809   1.98649  -1.19163   210481.66
  16194.587   1.94848  -1.19219   211688.98
  16197.366   1.91478  -1.19244      212785
  16200.493   1.90157   -1.192742    214231.7
  16203.274   1.89741  -1.19292   215796.09
  16206.405   1.88967  -1.19341   216935.19
  16209.884   1.89758  -1.19372   218734.97
  16213.016   1.92547  -1.19397   220243.45
  16216.499   1.95221  -1.1944   221824.62
  16219.981   1.96096  -1.19487   223303.48
  16223.468   1.95846  -1.19525   225207.05
  16226.954   1.96289  -1.19571    226721.3
  16230.792   1.95918  -1.19622   228458.23
  16234.281   1.93057  -1.19655   229119.87
  16238.122    1.909328  -1.19709    230158.2
  16242.313   1.9009  -1.19758   231508.22
  16246.159   1.89694  -1.19796   234745.94
  16250.354   1.88712  -1.19838   238964.34
  16254.553   1.87929  -1.19903   242508.44
  16258.753   1.8869  -1.19973   245214.23
  16262.957   1.89013  -1.20004   246840.72
  16267.162   1.90037  -1.20067   248358.91
  16271.719   1.91851  -1.20115   249993.78
  16276.280   1.92677  -1.2017   253121.34
  16280.844   1.92495  -1.20224   256513.59
  16285.760   1.90545  -1.20292   259693.55
  16290.328   1.88488  -1.20356   262391.19
  16295.252   1.8714  -1.20403   264547.53
  16300.179   1.87292  -1.20494   267462.56
  16305.459   1.87527  -1.20549   270224.28
  16310.392   1.88218  -1.20617   273153.69
  16315.680   1.88293  -1.20671   276149.81
  16320.972   1.86756  -1.20749   279148.62
  16326.268   1.86315  -1.20802   281949.09
  16331.564   1.87258  -1.20862   284964.28
  16337.221   1.87446  -1.20938   287939.19
  16342.881   1.87616  -1.21021   290658.75
  16348.544   1.87742  -1.21091   293628.03
  16354.211    1.865042  -1.21165   296856.97
  16360.238   1.84665  -1.21262   299817.62
  16365.914   1.8367  -1.21327   302761.97
  16371.948   1.84253  -1.21415      306143
  16377.989    1.847221  -1.21487   309383.75
  16384.389   1.84499  -1.21581   312294.16
  16390.438   1.84889  -1.21652   315256.28
  16396.848   1.84726  -1.21746   318468.09
  16403.262   1.83697    -1.21819   321503.59
  16409.684   1.82901  -1.21911   324238.81
  16416.107   1.826  -1.2199   327097.69
  16422.895   1.82728  -1.22078   329780.28
  16429.332   1.82023   -1.221897   333427.56
  16436.129   1.80855  -1.22296   336668.53
  16443.291   1.80673  -1.22394   339489.19
  16450.104   1.80833  -1.22475   342493.53
  16457.277   1.81999  -1.22568   345311.59
  16464.100   1.82506  -1.22646   348243.31
  16471.289   1.80811  -1.22735   351510.75
  16478.842   1.79029  -1.2283   354434.87
  16486.043   1.78537  -1.22929   358586.69
  16493.611   1.78352  -1.23029   361415.22
  16500.826   1.78213  -1.23118   364252.41
  16508.406     1.78364  -1.23199   367423.31
  16516.357   1.77851  -1.23313   370261.91
  16523.953   1.77426  -1.23408   373214.19
  16531.920   1.77212  -1.23519   376210.16
  16539.531   1.77381  -1.23622   379027.84
  16547.875   1.76966  -1.2372   381728.19
  16555.863   1.76425  -1.23817   384219.25
  16563.859   1.75855  -1.23929      387629
  16572.230   1.75223  -1.24028   390819.44
  16580.607   1.7439  -1.24142   393102.59
  16588.992   1.74267  -1.24285   395214.41
  16597.387   1.74519  -1.244   397967.94
  16605.793   1.74376  -1.2451   400221.16
  16614.570   1.74029  -1.24629   403357.06
  16622.992   1.73656  -1.24722   406181.66
  16631.789   1.72814  -1.2486   407715.94
  16640.963   1.71973  -1.24966   410068.94
  16649.779   1.71898  -1.25041   412089.59
  16658.604   1.72235  -1.2515   414827.97
  16667.809   1.71337  -1.25277   415950.03
  16677.021   1.70434  -1.25397   417983.81
  16686.246   1.69842  -1.25512   419709.25
  16695.480   1.69411  -1.25643   420849.41
  16705.096   1.69591  -1.25744   422157.22
  16714.723   1.69007  -1.25879   422407.75
  16723.990   1.68326  -1.25994   425251.97
  16733.639   1.67807  -1.26108   426752.91
  16743.670   1.67472   -1.262401    427614.5
  16753.342    1.671492  -1.26369   429215.81
  16763.396   1.66767  -1.26485   429192.81
  16773.094   1.66187  -1.26605    431105.5
  16783.174   1.65507  -1.26741   432454.87
  16793.641    1.649982  -1.26867   432882.94
  16803.746    1.645106  -1.26992   434365.72
  16813.863   1.64466  -1.27116   434888.16
  16824.369   1.64181  -1.27252   436662.31
  16834.887   1.63416  -1.27377   437908.16
  16845.420   1.63119  -1.27502   438181.72
  16855.965   1.62588  -1.27625   438747.94
  16866.525    1.618799  -1.27769   439854.87
  16877.477    1.614364  -1.27915   439269.47
  16888.441    1.609712  -1.2804   440569.78
  16899.041   1.60616  -1.28185   439797.78
  16910.416   1.60192  -1.28316    439942.5
  16921.424   1.59595   -1.284355   440352.87
  16932.447   1.59163    -1.28569   440848.97
  16943.865   1.58772  -1.28701   440247.72
  16955.301   1.58492  -1.28857   439909.19
  16966.371   1.58089  -1.28997   439589.37
  16977.836   1.57359  -1.29129   439866.22
  16989.699   1.56762  -1.29273   439228.75
  17001.197   1.5639  -1.29396      438516