File: data/Sr/SrZrSi2O7_15K_01.xdi
# XDI/1.0 EXAFS Data Collector 1.1 AD.RGN
# Column.1: energy eV
# Column.2: mutrans
# Column.3: murefer
# Column.4: i0
# Beamline.name: SSRL 4-3 (?)
# Detector.I0: N2 15cm
# Detector.I1: N2+Ar 30cm
# Detector.I2: Ar
# Element.edge: K
# Element.symbol: Sr
# Mono.d_spacing: 1.920128
# Mono.name: Si(220)
# Mono.notes: (?) unfocussed, detuned 50%, clockwise at E=16000eV
# Sample.formula: SrZrSi2O7
# Sample.name: SrZrSi2O7
# Sample.prep: powder
# Sample.reference: SrCO3
# Sample.temperature: 15K
# Scan.start_time: 1997-03-18 11:11:52
# ///
#    Note: mono d_spacing is nominal!
#-------------
#   energy   mutrans      murefer      i0
  15700.043  0.451659  -1.06579   43018.602
  15719.954  0.446935  -1.06969   42132.602
  15739.919   0.4441162  -1.07259   41106.602
  15759.935  0.437777  -1.07736   40744.602
  15780.002  0.434269  -1.08046   39868.602
  15799.958  0.430166  -1.08455   39039.602
  15819.965   0.4268575  -1.08797   38199.602
  15840.023   0.4230676  -1.09172   37424.602
  15859.968  0.418799  -1.09605   36728.602
  15879.964  0.415178  -1.09949   35950.602
  15900.011  0.411377  -1.10353   35115.602
  15919.941  0.407717  -1.10746   34459.602
  15939.925  0.404219  -1.11107   33678.602
  15959.959  0.40121  -1.11486   32948.602
  15980.045  0.397917  -1.11875     32137.6
  16000.012   0.3944866  -1.12244     31524.6
  16020.030  0.392019  -1.12627     30767.6
  16039.929  0.390447  -1.12988     30169.6
  16060.049  0.391375  -1.13319     29527.6
  16080.051  0.403614  -1.13574     28874.6
  16082.448  0.407447  -1.1356     28788.6
  16084.846  0.41209  -1.13575     28697.6
  16087.415   0.4202181  -1.13569     28508.6
  16089.813  0.430392  -1.13558     28535.6
  16092.214  0.448506   -1.135105     28330.6
  16094.785  0.484292  -1.13527     28304.6
  16097.187    0.568072  -1.13611     28222.6
  16099.588  0.738389  -1.13806     28118.6
  16102.162   1.02645  -1.13201     27976.6
  16104.565   1.33277   -1.092818     27956.6
  16106.970   1.61878   -1.021453     27906.6
  16109.547   1.81583 -0.953199     27881.6
  16111.952   1.79911 -0.920973     27763.6
  16114.359    1.686205 -0.935942     27628.6
  16116.767   1.5786 -0.95678     27568.6
  16119.345   1.48491 -0.98113     27504.6
  16121.754   1.42707 -0.999058     27404.6
  16124.163   1.39952  -1.00498     27401.6
  16126.746   1.39878  -1.00696     27158.6
  16129.157   1.41197  -1.008     27063.6
  16131.568   1.4181  -1.00653     26924.6
  16133.980   1.41668  -1.00302     26832.6
  16136.568   1.42117 -0.998021     26990.6
  16138.981   1.44133 -0.992728     26834.6
  16141.396   1.4779 -0.987146     26720.6
  16143.812   1.51898 -0.98117     26790.6
  16146.400    1.552967 -0.977905     26497.6
  16148.817   1.55665  -0.9778284     26315.6
  16151.062   1.53968 -0.979567   52608.184
  16153.481   1.51656 -0.9827   52389.063
  16155.727    1.498865 -0.985502   52032.816
  16158.146   1.48434 -0.988963   52255.449
  16160.740   1.47257 -0.993257   52098.957
  16163.334   1.4627 -0.99714   51622.344
  16166.102   1.4523  -1.00041   51613.605
  16168.871   1.44506  -1.0028   51189.746
  16171.642   1.43357  -1.00507   51282.762
  16174.586   1.41964  -1.00578   51286.656
  16177.705    1.406564  -1.00512    51295.43
  16180.825   1.39853  -1.00349   51667.078
  16183.946   1.40142  -1.00154   52153.605
  16187.242   1.41385  -1.00056   52587.008
  16190.539   1.43117  -1.00003   52726.289
  16194.011   1.44538  -1.00066   52965.445
  16197.485   1.45763  -1.00106    52846.48
  16201.134   1.45857  -1.00183   52776.391
  16204.785   1.45114   -1.002314    52906.18
  16208.612   1.44173   -1.002884   52967.848
  16212.439   1.43304  -1.00437   53321.391
  16216.271   1.42456  -1.00738   53196.809
  16220.276   1.41738  -1.01012   53478.109
  16224.459   1.41106  -1.01242   53424.281
  16228.644   1.4018  -1.01369   53801.336
  16232.832   1.39411  -1.01458   53872.266
  16237.194   1.3876   -1.014977    54094.07
  16241.561   1.38317  -1.01519   54394.754
  16246.104   1.37932  -1.01605   54691.313
  16250.650   1.37855  -1.0156   54939.754
  16255.199   1.38523  -1.01614   55136.066
  16259.925   1.39354  -1.01742   55361.258
  16264.830   1.4051  -1.01903   55677.328
  16269.737   1.41374   -1.018992   56113.273
  16274.646   1.41641  -1.01892   56075.098
  16279.736   1.40979  -1.02016   56319.801
  16284.828   1.39809  -1.02168   56801.379
  16290.099   1.38476  -1.02296   57150.832
  16295.373   1.37266  -1.02474   57267.164
  16300.827   1.36406  -1.02603   57678.375
  16306.286   1.36087  -1.02746   57963.461
  16311.748   1.36188   -1.029007   58440.426
  16317.388   1.36747  -1.02992   58732.266
  16323.212   1.37588  -1.03058   59088.984
  16328.861   1.37822   -1.031417   59376.578
  16334.867   1.37166  -1.03191   59727.051
  16340.703   1.36478  -1.03311   59941.402
  16346.719   1.36029  -1.03367   60475.629
  16352.918   1.35901  -1.03583   60927.734
  16359.119   1.35622   -1.037031   60931.715
  16365.326   1.35529  -1.03866    61272.57
  16371.717   1.35427  -1.03967   61727.309
  16378.111   1.34882  -1.04113   61931.922
  16384.689   1.34396  -1.0421    62272.41
  16391.271    1.342489  -1.04318   62337.777
  16398.039   1.33888  -1.04467    62948.02
  16404.813   1.33484  -1.04631   63289.145
  16411.590   1.32951  -1.04725   63502.141
  16418.553   1.32738  -1.04802   63726.016
  16425.521   1.32495  -1.04908    64139.77
  16432.676   1.32569  -1.04985   64650.398
  16439.834   1.32629  -1.05077   65143.906
  16447.180   1.32272  -1.05269   65180.293
  16454.354   1.31881  -1.05371   65656.555
  16461.891   1.31579  -1.05446   65955.688
  16469.438   1.31283  -1.05654   66377.711
  16476.988   1.31218  -1.05771   66523.602
  16484.549   1.30697  -1.05855   66853.367
  16492.295    1.299382   -1.060444   67021.016
  16500.229   1.29356  -1.06254   67329.539
  16508.172   1.29032  -1.06347   67624.945
  16516.121   1.2918  -1.0642   67780.227
  16524.080   1.29272  -1.06598   68272.375
  16532.227   1.28988  -1.06777   68451.414
  16540.563   1.28505  -1.06869    68543.32
  16548.906   1.28199  -1.0703   69243.109
  16557.262   1.2766  -1.0727   69427.773
  16565.807   1.27309  -1.07432   69509.313
  16574.357   1.2723  -1.07565   69782.734
  16582.922   1.26929  -1.07691   70202.031
  16591.674   1.26635  -1.07853   70462.203
  16600.438   1.26209  -1.08043   70323.258
  16609.393   1.25632  -1.08163    70762.18
  16618.357   1.24967  -1.08224   70743.984
  16627.332    1.245979  -1.08347   71014.672
  16636.502   1.24445   -1.084972   71596.227
  16645.682    1.243313   -1.086862   71866.664
  16655.053   1.23937  -1.08857   71581.977
  16664.254   1.23613  -1.08983   72177.172
  16673.832    1.233183   -1.091884   72349.234
  16683.420   1.22885  -1.09341    72251.18
  16693.023   1.22385  -1.09548   72519.008
  16702.635   1.21851  -1.09701   72631.703
  16712.445   1.21213  -1.09809   72369.281
  16722.264   1.2088  -1.10024   73110.734
  16732.281    1.206911  -1.10174   72622.063
  16742.313    1.205218  -1.10377   72622.273
  16752.355   1.20081  -1.10546   72674.359
  16762.596   1.19536  -1.10709    73090.32
  16772.852   1.18878  -1.10868   72776.156
  16783.117   1.18591  -1.11049   72957.875
  16793.584   1.18148  -1.1118   72743.469
  16804.063   1.17826   -1.113528   72979.938
  16814.744   1.17339  -1.1142   72592.289
  16825.438   1.17031  -1.11631   72886.516
  16836.146   1.16722  -1.11883   72929.617
  16847.059   1.16277  -1.12088   72612.594
  16857.982   1.15943  -1.12321   73030.453
  16868.922   1.15399  -1.12401   72551.188
  16880.064   1.15013  -1.1274   73120.797
  16891.223   1.14455  -1.12842   72649.289
  16902.396   1.14157   -1.130816   72856.656
  16913.773   1.13754  -1.13217   72813.898
  16925.166   1.13376  -1.13365   72962.016
  16936.576   1.128  -1.13359   72598.016
  16948.191   1.12338  -1.13605   72268.883
  16959.822   1.11935  -1.13846   72343.641
  16971.471   1.1154  -1.14094   72331.266
  16983.326   1.11083  -1.1421   72554.773
  16995.197   1.10671  -1.14378   72302.156
  17001.332   1.10536  -1.14524   72131.797