File: data/Sr/SrZrSi2O7_15K_02.xdi
# XDI/1.0 EXAFS Data Collector 1.1 AD.RGN
# Column.1: energy eV
# Column.2: mutrans
# Column.3: murefer
# Column.4: i0
# Beamline.name: SSRL 4-3 (?)
# Detector.I0: N2 15cm
# Detector.I1: N2+Ar 30cm
# Detector.I2: Ar
# Element.edge: K
# Element.symbol: Sr
# Mono.d_spacing: 1.920128
# Mono.name: Si(220)
# Mono.notes: (?) unfocussed, detuned 50%, clockwise at E=16000eV
# Sample.formula: SrZrSi2O7
# Sample.name: SrZrSi2O7
# Sample.prep: powder
# Sample.reference: SrCO3
# Sample.temperature: 15K
# Scan.start_time: 1997-03-18 11:11:52
# ///
#    Note: mono d_spacing is nominal!
#-------------
#   energy   mutrans      murefer      i0
  15700.043  0.45308   -1.062762   40559.602
  15719.954  0.448413  -1.06733   39725.602
  15739.919  0.446166   -1.069175   38486.602
  15759.935  0.440112  -1.07378   38072.602
  15780.002  0.436507  -1.07764   37166.602
  15799.958  0.432793  -1.08125   36316.602
  15819.965  0.428564  -1.08536   35670.602
  15840.023  0.424132  -1.08949   34985.602
  15859.968  0.420523  -1.09286   34125.602
  15879.964  0.416624  -1.0968   33387.602
  15900.011  0.412684  -1.10089     32739.6
  15919.941  0.409761  -1.10456     31839.6
  15939.925  0.406157  -1.10837     31091.6
  15959.959  0.401705  -1.11241     30657.6
  15980.045  0.398039  -1.11607     29985.6
  16000.012  0.395966  -1.12     29128.6
  16020.030  0.39293  -1.12386     28579.6
  16039.929  0.391177   -1.127642     27865.6
  16060.049  0.391866   -1.131243     27424.6
  16080.051  0.404752  -1.13357     26618.6
  16082.448  0.408045  -1.13375     26590.6
  16084.846  0.412098  -1.13376     26775.6
  16087.415  0.420341  -1.13371     26514.6
  16089.813  0.431019   -1.133241     26337.6
  16092.214  0.448231  -1.13311     26215.6
  16094.785  0.483926  -1.13333     26165.6
  16097.187  0.567475  -1.13423     26108.6
  16099.588   0.7353696  -1.13602     26093.6
  16102.162   1.02118  -1.12929     25966.6
  16104.565   1.33195  -1.09007     25800.6
  16106.970   1.61549   -1.016685     25767.6
  16109.547   1.81345 -0.946964     25779.6
  16111.952   1.79822 -0.913831     25661.6
  16114.359   1.68696 -0.929124     25585.6
  16116.767   1.57909 -0.950174     25525.6
  16119.345   1.48545 -0.975139     25297.6
  16121.754   1.42728 -0.993666     25401.6
  16124.163   1.39884 -0.999632     25341.6
  16126.746   1.39758  -1.00123     25123.6
  16129.157   1.40979  -1.00195     25108.6
  16131.568   1.4181  -1.00119     24818.6
  16133.980   1.41574 -0.997517     24817.6
  16136.568   1.42031 -0.992681     24906.6
  16138.981   1.44022 -0.987341     24799.6
  16141.396   1.47591 -0.981384     24650.6
  16143.812   1.51883 -0.975104     24498.6
  16146.400   1.55131 -0.971235     24519.6
  16148.817   1.55451 -0.971443     24569.6
  16151.062   1.53874 -0.973359   48971.184
  16153.481   1.51613  -0.9767994   48518.063
  16155.727   1.4975 -0.978801   48398.816
  16158.146    1.485086 -0.982381   48298.449
  16160.740   1.47406 -0.987162   48062.957
  16163.334   1.46159 -0.991781   47972.344
  16166.102   1.45259 -0.995672   47649.605
  16168.871   1.44338 -0.997714   47516.746
  16171.642    1.433758  -1.00042   47391.762
  16174.586   1.41975  -1.00138   47321.656
  16177.705   1.40611  -1.00058    47567.43
  16180.825   1.39805 -0.998337   47866.078
  16183.946   1.40051 -0.997278   48515.605
  16187.242   1.41367 -0.995806   48734.008
  16190.539   1.43057 -0.995262   48919.289
  16194.011   1.44527 -0.99595   49068.445
  16197.485   1.45525 -0.996227    49073.48
  16201.134   1.45786 -0.996031   48755.391
  16204.785   1.45108 -0.997088    48968.18
  16208.612   1.44198 -0.998583   49136.848
  16212.439   1.43343  -1.00054   49291.391
  16216.271   1.42421  -1.0028   49372.809
  16220.276    1.417387  -1.00515   49389.109
  16224.459   1.40978  -1.00747   49785.281
  16228.644   1.40124  -1.00867   50064.336
  16232.832    1.393663  -1.00955   50064.266
  16237.194   1.38774  -1.01044    50244.07
  16241.561   1.38314  -1.01077   50377.754
  16246.104   1.37917  -1.01141   50604.313
  16250.650   1.37826  -1.01095   50963.754
  16255.199   1.38368  -1.01011   51057.066
  16259.925   1.39238  -1.01152   51365.258
  16264.830   1.4033  -1.01251   51468.328
  16269.737   1.41381  -1.01372   51845.273
  16274.646   1.41534  -1.01361   51967.098
  16279.736    1.408763  -1.01388   52436.801
  16284.828   1.39706  -1.01552   52631.379
  16290.099   1.38364  -1.01743   52933.832
  16295.373   1.37152  -1.01899   53272.164
  16300.827   1.36323  -1.02087   53248.375
  16306.286   1.35966  -1.02216   53663.461
  16311.748   1.36087  -1.02321   54263.426
  16317.388   1.36643  -1.02389   54534.266
  16323.212   1.37434   -1.024166   54823.984
  16328.861   1.37599  -1.02438   55435.578
  16334.867   1.36975   -1.025339   55466.051
  16340.703   1.36255  -1.02619   55772.402
  16346.719   1.35866   -1.027855   56128.629
  16352.918   1.35736  -1.02974   56373.734
  16359.119   1.35448  -1.03106   56702.715
  16365.326   1.35292  -1.03253    57034.57
  16371.717   1.35041  -1.03418   57414.309
  16378.111   1.3446  -1.03499   57780.922
  16384.689   1.34233  -1.03642    57987.41
  16391.271    1.340197  -1.03679   58512.777
  16398.039   1.33666  -1.03854    58747.02
  16404.813   1.33275  -1.03958   58789.145
  16411.590   1.3271  -1.04075   59164.141
  16418.553   1.32535  -1.0422   59604.016
  16425.521    1.323089  -1.0427    59634.77
  16432.676   1.32422  -1.04451   60096.398
  16439.834   1.32479  -1.0459   60577.906
  16447.180   1.31977  -1.04649   60748.293
  16454.354   1.3163  -1.04789   61329.551
  16461.891    1.314234  -1.04946   61598.691
  16469.438   1.31065  -1.0505   61682.707
  16476.988   1.30964  -1.05154   61886.602
  16484.549    1.303984  -1.05297   61997.371
  16492.295   1.29711  -1.05508    62537.02
  16500.229   1.29041  -1.05623   62578.543
  16508.172    1.287655  -1.0576   62798.945
  16516.121   1.28986  -1.05895   63174.223
  16524.080   1.28972  -1.06034   63651.379
  16532.227   1.28711  -1.06216    63680.41
  16540.563   1.28209  -1.06293    64239.32
  16548.906   1.27553  -1.06412   63971.109
  16557.262   1.27101   -1.065147   64235.773
  16565.807   1.26878  -1.06675   64733.316
  16574.357   1.26744  -1.06785   65054.734
  16582.922   1.26368  -1.06931   65188.031
  16591.674   1.26099  -1.07109   65498.203
  16600.438   1.25721  -1.07246   66138.258
  16609.393    1.252694  -1.07488    66429.18
  16618.357    1.246218   -1.076272   66622.984
  16627.332   1.24409  -1.07712   67056.672
  16636.502   1.24027  -1.07869   67066.227
  16645.682    1.239606  -1.08117   67227.664
  16655.053   1.23553   -1.082431   67374.977
  16664.254    1.231074  -1.08346   67566.172
  16673.832   1.22918  -1.08563   67965.234
  16683.420   1.22491  -1.08719    67974.18
  16693.023   1.22024  -1.08905   68155.008
  16702.635   1.21547  -1.08998   68614.703
  16712.445   1.21092  -1.092   68922.281
  16722.264   1.20636  -1.09314   68455.734
  16732.281   1.20349  -1.09457   68546.063
  16742.313    1.201736  -1.09625   68455.273
  16752.355   1.19768  -1.09842   68614.359
  16762.596   1.19231   -1.099863    68578.32
  16772.852   1.18668   -1.101446   68751.156
  16783.117   1.18319  -1.10275   68910.875
  16793.584   1.17898  -1.10464   69131.469
  16804.063   1.17479  -1.1059   69139.938
  16814.744   1.17036  -1.10762   69107.289
  16825.438   1.16709  -1.10974   69066.516
  16836.146   1.163  -1.11135   68936.617
  16847.059   1.1585  -1.11285   68958.594
  16857.982   1.15404  -1.11445   68918.453
  16868.922   1.15081   -1.116675   69394.188
  16880.064   1.14438  -1.11703   68963.797
  16891.223   1.14112  -1.11954   69480.289
  16902.396   1.13652  -1.12078   69249.656
  16913.773   1.13338  -1.12271   69318.898
  16925.166   1.12977  -1.12447   69431.016
  16936.576   1.12622  -1.12711   69274.016
  16948.191   1.12234   -1.128867   69477.883
  16959.822   1.11628   -1.129745   69102.641
  16971.471   1.11262  -1.13166   69535.266
  16983.326   1.11406  -1.13382   69803.773
  16995.197   1.10499   -1.135777   69475.156
  17001.332    1.102615  -1.13685   69391.797