File: data/Sr/SrZrSi2O7_15K_03.xdi
# XDI/1.0 EXAFS Data Collector 1.1 AD.RGN
# Column.1: energy eV
# Column.2: mutrans
# Column.3: murefer
# Column.4: i0
# Beamline.name: SSRL 4-3 (?)
# Detector.I0: N2 15cm
# Detector.I1: N2+Ar 30cm
# Detector.I2: Ar
# Element.edge: K
# Element.symbol: Sr
# Mono.d_spacing: 1.920128
# Mono.name: Si(220)
# Mono.notes: (?) unfocussed, detuned 50%, clockwise at E=16300eV
# Sample.formula: SrZrSi2O7
# Sample.name: SrZrSi2O7
# Sample.prep: powder
# Sample.reference: SrCO3
# Sample.temperature: 15K
# Scan.start_time: 1997-03-18 11:11:52
# ///
#    Note: mono d_spacing is nominal!
#-------------
#   energy   mutrans      murefer      i0
  15700.043  0.45587   -1.057102   38937.602
  15719.954  0.451634  -1.0609   37899.602
  15739.919  0.448616  -1.06403   36748.602
  15759.935  0.443051  -1.06847   36298.602
  15780.002   0.4383426  -1.07271   35726.602
  15799.958  0.4347  -1.07643   34847.602
  15819.965  0.430629  -1.08037   34124.602
  15840.023  0.42663  -1.08421   33352.602
  15859.968  0.422417  -1.08847     32661.6
  15879.964  0.419194  -1.09224     31902.6
  15900.011  0.414966  -1.09609     31251.6
  15919.941  0.411032  -1.10033     30534.6
  15939.925    0.407833  -1.10405     29808.6
  15959.959  0.403876  -1.10793     29244.6
  15980.045  0.399797  -1.11176     28673.6
  16000.012  0.397048  -1.11568     27919.6
  16020.030  0.393925  -1.11955     27310.6
  16039.929  0.392563  -1.12337     26759.6
  16060.049  0.393528  -1.12677     26023.6
  16080.051  0.405465  -1.12912     25473.6
  16082.448  0.408703  -1.12927     25363.6
  16084.846  0.413669  -1.12941     25214.6
  16087.415  0.421545   -1.129463     25139.6
  16089.813  0.431669  -1.12941     25093.6
  16092.214  0.448259  -1.12921     25112.6
  16094.785  0.482055  -1.12904     25057.6
  16097.187  0.560083  -1.13007     24916.6
  16099.588   0.7216325  -1.13205     24918.6
  16102.162   1.00231  -1.1267     24685.6
  16104.565   1.30798  -1.08894     24834.6
  16106.970   1.5945  -1.01638     24685.6
  16109.547   1.80611 -0.945515     24580.6
  16111.952   1.80452 -0.906093     24462.6
  16114.359   1.69527 -0.918962     24360.6
  16116.767   1.58641   -0.942323     24447.6
  16119.345    1.490952 -0.967776     24273.6
  16121.754   1.43049 -0.986274     24312.6
  16124.163   1.40056 -0.99385     24147.6
  16126.746   1.39738 -0.99504     23949.6
  16129.157   1.41005 -0.996119     23894.6
  16131.568   1.41703 -0.994951     23818.6
  16133.980   1.41474 -0.991752     23887.6
  16136.568   1.41913 -0.986241     23901.6
  16138.981   1.43786 -0.981295     23738.6
  16141.396   1.47193 -0.975243     23563.6
  16143.812   1.5144 -0.969219     23535.6
  16146.400   1.54938 -0.965089     23365.6
  16148.817   1.55587 -0.965331     23304.6
  16151.062   1.54106 -0.967313   46470.184
  16153.481   1.51801 -0.970627   46291.063
  16155.727   1.49951 -0.97348   46148.816
  16158.146   1.48425 -0.976393   45862.449
  16160.740   1.47219 -0.981035   45858.957
  16163.334   1.46196 -0.985194   45604.344
  16166.102   1.4524 -0.988889   45392.605
  16168.871   1.44351 -0.991486   45341.746
  16171.642   1.43323 -0.993792   45161.762
  16174.586    1.419086 -0.99463   45343.656
  16177.705   1.40725 -0.99367    45346.43
  16180.825   1.39729 -0.992149   45921.078
  16183.946   1.39847 -0.989798   46602.605
  16187.242   1.4108 -0.988004   46475.008
  16190.539   1.42815 -0.98838   46761.289
  16194.011   1.44366 -0.989057   46566.445
  16197.485   1.45396 -0.989446    46767.48
  16201.134   1.45675 -0.989773   46791.391
  16204.785   1.44987 -0.990178    46611.18
  16208.612   1.44006 -0.9906   46695.848
  16212.439   1.43191 -0.992763   46788.391
  16216.271   1.42296 -0.995575   46850.809
  16220.276   1.41551 -0.99755   47159.109
  16224.459   1.4095  -1.00092   47376.281
  16228.644   1.40059  -1.00138   47337.336
  16232.832   1.39192  -1.00275   47527.266
  16237.194   1.38598  -1.00357    47748.07
  16241.561   1.3818  -1.00409   47980.754
  16246.104   1.37738  -1.00394   48107.313
  16250.650   1.37697  -1.00431   48258.754
  16255.199   1.38159  -1.00309   48681.066
  16259.925   1.38963  -1.00397   49029.258
  16264.830   1.40015   -1.005089   49270.328
  16269.737   1.41063   -1.006534   49336.273
  16274.646   1.41327  -1.0066   49320.098
  16279.736   1.40761   -1.007959   49695.801
  16284.828   1.39466  -1.00828   49887.379
  16290.099   1.38156   -1.009887   50136.832
  16295.373   1.36921  -1.01167   50424.164
  16300.827   1.36079  -1.01361   50654.375
  16306.286   1.35757  -1.01448   50908.461
  16311.748    1.357749  -1.0156   51252.426
  16317.388    1.363802  -1.01586   51524.266
  16323.212   1.37062  -1.01675   52009.984
  16328.861   1.37431  -1.01797   52362.578
  16334.867   1.3679  -1.01876   52536.051
  16340.703   1.36045  -1.01957   52802.402
  16346.719   1.35649  -1.02081   53067.629
  16352.918   1.35531  -1.0229   53477.734
  16359.119   1.35239  -1.02412   53734.715
  16365.326   1.35024  -1.02449    54115.57
  16371.717   1.34778  -1.02623   54461.309
  16378.111   1.34182  -1.02758   54846.922
  16384.689   1.33929  -1.0282    54693.41
  16391.271   1.33745  -1.02968   55243.777
  16398.039   1.33495  -1.0317    55470.02
  16404.813   1.33071  -1.03296   55638.145
  16411.590   1.32679  -1.03373   56014.141
  16418.553   1.32223  -1.03439   56334.016
  16425.521   1.3202  -1.03589    56751.77
  16432.676   1.32094  -1.03701   57108.398
  16439.834   1.32168  -1.03802   57205.906
  16447.180   1.31711  -1.03991   57593.293
  16454.354   1.31363  -1.04101   58030.551
  16461.891   1.31043  -1.04196   58131.691
  16469.438   1.30827  -1.04355   58764.707
  16476.988   1.30759  -1.04508   58783.602
  16484.549   1.30229  -1.04581   59053.371
  16492.295   1.29513  -1.04769    59094.02
  16500.229   1.28782  -1.04865   59520.543
  16508.172   1.2852  -1.04995   59723.945
  16516.121   1.28666  -1.05112   60162.223
  16524.080   1.29064  -1.05297   60536.379
  16532.227   1.28466  -1.055    60763.41
  16540.563   1.28091  -1.05643    61071.32
  16548.906   1.27346  -1.05692   61019.109
  16557.262   1.27075  -1.06004   61446.773
  16565.807   1.26727  -1.06088   61446.316
  16574.357   1.26622  -1.06247   61920.734
  16582.922   1.2634  -1.06359   62138.031
  16591.674   1.26022  -1.0648   62482.203
  16600.438   1.25573  -1.06643   62428.254
  16609.393   1.25063  -1.0681   62548.184
  16618.357   1.24468  -1.06978   62815.988
  16627.332   1.24008  -1.07041   62969.668
  16636.502   1.23825  -1.07202    63540.23
  16645.682   1.23705  -1.07377   63627.664
  16655.053   1.23366  -1.07588    63811.98
  16664.254   1.229   -1.076942   63629.168
  16673.832   1.22539  -1.07785   63863.238
  16683.420    1.222737  -1.08021   64291.184
  16693.023   1.21633  -1.08073   64200.004
  16702.635   1.2126  -1.08342   64658.703
  16712.445   1.20704  -1.0847   64669.281
  16722.264   1.20383  -1.08726   64842.734
  16732.281   1.20126  -1.08817   65042.066
  16742.313   1.19932  -1.08997   65214.273
  16752.355   1.19638  -1.09305   65002.359
  16762.596    1.189695  -1.09371    65162.32
  16772.852   1.18328  -1.09445    65037.16
  16783.117   1.18141  -1.09668   65571.875
  16793.584   1.1766   -1.097699   65192.469
  16804.063   1.17403  -1.10007   65486.941
  16814.744   1.16948  -1.10155   65369.289
  16825.438   1.16572  -1.10302   65696.516
  16836.146   1.15927  -1.10404   65332.617
  16847.059   1.15665  -1.10509   65632.594
  16857.982   1.1542  -1.10662   65643.453
  16868.922   1.14958  -1.10889   65956.188
  16880.064   1.14508  -1.11158   66161.797
  16891.223   1.13942  -1.1125   65793.289
  16902.396    1.136764  -1.11457   65775.656
  16913.773   1.13287  -1.11615   65951.898
  16925.166     1.12744  -1.11682   65876.016
  16936.576   1.12459  -1.11907   66184.016
  16948.191   1.11887  -1.12103   65731.883
  16959.822   1.11659  -1.1243   66017.641
  16971.471   1.11087  -1.12505   66018.266
  16983.326    1.107886  -1.12847   65867.773
  16995.197   1.10267   -1.128192   65983.156
  17001.332   1.10063  -1.12913   66235.797