File: data/Sr/SrZrSi2O7_rt_01.xdi
# XDI/1.0 EXAFS Data Collector 1.1 AD.RGN
# Column.1: energy eV
# Column.2: mutrans
# Column.3: i0
# Beamline.name: SSRL 4-3 (?)
# Detector.I0: N2 15cm
# Detector.I1: N2+Ar 30cm
# Element.edge: K
# Element.symbol: Sr
# Mono.d_spacing: 1.920128
# Mono.name: Si(220)
# Mono.notes: (?) unfocussed, detuned 50%, clockwise at E=16300eV
# Sample.formula: SrZrSi2O7
# Sample.name: SrZrSi2O7
# Sample.prep: powder
# Sample.reference: none
# Sample.temperature: room temperature
# Scan.start_time: 1997-03-18 18:39:16
# ///
#    Note: mono d_spacing is nominal!
#-------------
#   energy   mutrans      i0
  15700.043  0.468542   69642.602
  15719.954  0.469743   69345.602
  15739.919  0.477158   68074.602
  15759.935  0.464916   68247.602
  15780.002  0.466228   68005.602
  15799.958  0.463131   67264.602
  15819.965  0.46409   66880.602
  15840.023  0.461872   66316.602
  15859.968  0.464309   66026.602
  15879.964  0.462718   65381.602
  15900.011  0.460351   64648.602
  15919.941  0.460191   64137.602
  15939.925  0.453769   63007.602
  15959.959  0.45754   62918.602
  15980.045  0.456295   62150.602
  16000.012  0.453961   61443.602
  16020.030  0.454503   60895.602
  16039.929  0.452495   59905.602
  16060.049  0.457621   59478.602
  16080.051  0.471338   58449.602
  16082.448  0.476177   58549.602
  16084.846   0.4821712   58535.602
  16087.415  0.490845   58331.602
  16089.813  0.504835   58452.602
  16092.214  0.522967   58204.602
  16094.785  0.561587   58304.602
  16097.187  0.646251   57984.602
  16099.588  0.825266   57868.602
  16102.162   1.15664   57735.602
  16104.565   1.54864   57652.602
  16106.970     1.92665   57618.602
  16109.547   2.19318   57549.602
  16111.952   2.19408   57448.602
  16114.359   2.06088   57312.602
  16116.767   1.91853   57268.602
  16119.345   1.80095   57013.602
  16121.754   1.73641   57009.602
  16124.163   1.69898   56637.602
  16126.746   1.69617   56658.602
  16129.157   1.70847   56564.602
  16131.568    1.722602   56367.602
  16133.980   1.72556   56253.602
  16136.568   1.73082   56138.602
  16138.981   1.75436   56371.602
  16141.396   1.78999   56092.602
  16143.812   1.83269   55920.602
  16146.400   1.86956   55977.602
  16148.817   1.87428   55636.602
  16151.062   1.85939   111176.19
  16153.481   1.83555   110912.09
  16155.727   1.8171   110759.91
  16158.146   1.80152   110443.62
  16160.740   1.78769   110040.24
  16163.334   1.77454   109711.77
  16166.102   1.76366    109673.2
  16168.871   1.7535   109532.54
  16171.642   1.7446   109537.79
  16174.586   1.73301   109465.94
  16177.705   1.72088   109873.99
  16180.825   1.71265   110541.95
  16183.946   1.71244   111454.82
  16187.242   1.72293   112499.59
  16190.539   1.73883   113172.27
  16194.011   1.75331   113634.85
  16197.485   1.76328   113974.34
  16201.134   1.76577   114497.73
  16204.785   1.75798   114947.03
  16208.612    1.747996   115313.23
  16212.439   1.73861   115830.34
  16216.271    1.730166   116499.36
  16220.276   1.72276   117078.28
  16224.459   1.71639   117758.11
  16228.644   1.70949   118427.84
  16232.832   1.7028   119182.48
  16237.194   1.69688   119926.02
  16241.561   1.69271   120547.47
  16246.104   1.68844   121487.82
  16250.650    1.687001   122257.08
  16255.199   1.69109   123102.24
  16259.925   1.69695   123860.31
  16264.830   1.70524   124853.29
  16269.737   1.71447   125789.17
  16274.646   1.7155   126833.96
  16279.736   1.70993   127802.66
  16284.828   1.70052   128738.25
  16290.099   1.69117   129787.76
  16295.373   1.68205   130647.16
  16300.827   1.67597   131751.48
  16306.286   1.67164    133026.7
  16311.748   1.67071   134340.83
  16317.388   1.67191   135545.86
  16323.212   1.67574    136921.8
  16328.861   1.67649   138061.64
  16334.867   1.67449   139139.37
  16340.703   1.66904   140248.03
  16346.719   1.66525   141469.59
  16352.918   1.66198   142632.06
  16359.119   1.65883   143954.42
  16365.326   1.65614    145300.7
  16371.717   1.65313   146438.87
  16378.111   1.64961   148106.97
  16384.689   1.64719   149391.95
  16391.271   1.64499   150575.86
  16398.039   1.64156   151692.66
  16404.813   1.63825   152866.36
  16411.590   1.63378   154334.98
  16418.553   1.63204    155474.5
  16425.521   1.62863   156626.92
  16432.676   1.62771   157924.25
  16439.834   1.626   159133.48
  16447.180   1.62352   160389.62
  16454.354   1.62105   161498.67
  16461.891   1.61866   162325.62
  16469.438   1.61542   163495.48
  16476.988   1.61264   164450.25
  16484.549   1.60869   165673.92
  16492.295   1.60407   167319.48
  16500.229   1.59989   168455.97
  16508.172   1.59718   169443.36
  16516.121   1.59572   170733.64
  16524.080   1.59272   171770.84
  16532.227   1.58958   173028.94
  16540.563   1.58588   173909.95
  16548.906   1.582   175354.86
  16557.262   1.57822   176553.69
  16565.807   1.57523   177542.41
  16574.357   1.57239   178512.03
  16582.922   1.56932   180017.56
  16591.674   1.56569   181396.02
  16600.438   1.56208   182126.36
  16609.393   1.55792   183558.61
  16618.357   1.55391   184383.77
  16627.332    1.550062   185129.83
  16636.502   1.54649    186382.8
  16645.682   1.54337   187032.66
  16655.053    1.539663   188029.44
  16664.254   1.53641   188585.12
  16673.832   1.53284   189595.72
  16683.420   1.52872    190483.2
  16693.023   1.52514   191394.61
  16702.635   1.5211   192274.92
  16712.445   1.51668   193182.12
  16722.264   1.51336   193926.25
  16732.281   1.50918   194616.27
  16742.313   1.50541    195467.2
  16752.355   1.50195   196136.03
  16762.596   1.4973   196990.77
  16772.852   1.49356   197470.41
  16783.117   1.4892   197939.97
  16793.584    1.485291   198723.42
  16804.063   1.48192   199252.78
  16814.744   1.47781   199611.05
  16825.438   1.47389   200125.22
  16836.146   1.46964    200902.3
  16847.059   1.46578   201278.28
  16857.982   1.46154   201950.17
  16868.922   1.45702   202399.97
  16880.064   1.45342   202635.66
  16891.223   1.44905   202786.27
  16902.396    1.444657   203226.78
  16913.773   1.44026   203946.19
  16925.166   1.43618   203793.52
  16936.576   1.43178   203818.73
  16948.191    1.427493   203125.87
  16959.822   1.4228   203620.91
  16971.471   1.41889   203196.86
  16983.326   1.41402    202712.7
  16995.197   1.4095   203141.45
  17001.332   1.4076    203193.8