File: data/Sr/SrZrSi2O7_rt_02.xdi
# XDI/1.0 EXAFS Data Collector 1.1 AD.RGN
# Column.1: energy eV
# Column.2: mutrans
# Column.3: i0
# Beamline.name: SSRL 4-3 (?)
# Detector.I0: N2 15cm
# Detector.I1: N2+Ar 30cm
# Element.edge: K
# Element.symbol: Sr
# Mono.d_spacing: 1.920128
# Mono.name: Si(220)
# Mono.notes: (?) unfocussed, detuned 50%, clockwise at E=16300eV
# Sample.formula: SrZrSi2O7
# Sample.name: SrZrSi2O7
# Sample.prep: powder
# Sample.reference: none
# Sample.temperature: room temperature
# Scan.start_time: 1997-03-18 18:39:16
# ///
#    Note: mono d_spacing is nominal!
#-------------
#   energy   mutrans      i0
  15700.043  0.497629   69120.602
  15719.954  0.49106   68107.602
  15739.919  0.496208   66499.602
  15759.935  0.481522   66614.602
  15780.002  0.484945   66412.602
  15799.958  0.480055   65503.602
  15819.965  0.475019   64624.602
  15840.023  0.476611   64371.602
  15859.968  0.474153   63784.602
  15879.964  0.475203   63383.602
  15900.011  0.472583   62699.602
  15919.941  0.469509   62046.602
  15939.925  0.468319   61485.602
  15959.959  0.465831   60765.602
  15980.045  0.462525   59853.602
  16000.012  0.462636   59372.602
  16020.030  0.460413   58676.602
  16039.929  0.46112   57950.602
  16060.049  0.462159   57099.602
  16080.051  0.476853   56388.602
  16082.448  0.481309   56266.602
  16084.846   0.4863845   56188.602
  16087.415  0.495898   56157.602
  16089.813  0.506345   55947.602
  16092.214  0.524411   55911.602
  16094.785  0.559415   55763.602
  16097.187  0.638563   55809.602
  16099.588  0.808644   55731.602
  16102.162   1.12908   55547.602
  16104.565   1.51888   55432.602
  16106.970   1.90222   55410.602
  16109.547   2.18763   55216.602
  16111.952   2.2118   55142.602
  16114.359   2.08125   54981.602
  16116.767   1.93417   54767.602
  16119.345   1.81455   54761.602
  16121.754   1.74546   54743.602
  16124.163   1.70912   54651.602
  16126.746   1.70036   54437.602
  16129.157   1.71452   54425.602
  16131.568   1.72686   54173.602
  16133.980   1.73093   54010.602
  16136.568   1.73502   54067.602
  16138.981    1.755895   54119.602
  16141.396   1.79237   54130.602
  16143.812   1.83627   53812.602
  16146.400   1.87266   53627.602
  16148.817   1.88195   53661.602
  16151.062   1.86811   107189.19
  16153.481   1.84278   106925.09
  16155.727   1.82431   106676.91
  16158.146    1.807187   106458.62
  16160.740   1.79263   106080.24
  16163.334   1.78036   105771.77
  16166.102    1.769351    105734.2
  16168.871   1.75876   105611.54
  16171.642   1.75028   105666.79
  16174.586   1.73872   105705.94
  16177.705   1.72573   105914.99
  16180.825    1.717065   106526.95
  16183.946   1.71653   107286.82
  16187.242   1.72698   108434.59
  16190.539   1.74259   109097.27
  16194.011   1.75799   109515.85
  16197.485   1.76764   109722.34
  16201.134   1.77035   110054.73
  16204.785   1.76335   110633.03
  16208.612   1.75341   111037.23
  16212.439   1.74362   111541.34
  16216.271   1.7352   112222.36
  16220.276   1.72755   112655.28
  16224.459   1.7213   113423.11
  16228.644   1.71387   113846.84
  16232.832   1.7067   114578.48
  16237.194   1.70103   115280.02
  16241.561   1.69614   116020.47
  16246.104   1.6918   116711.82
  16250.650   1.69076   117462.08
  16255.199   1.69469   118254.24
  16259.925   1.70047   118995.31
  16264.830   1.70864   119757.29
  16269.737    1.716926   120536.17
  16274.646   1.71946   121593.96
  16279.736   1.71376   122393.66
  16284.828   1.70475   123448.25
  16290.099   1.69491   124380.76
  16295.373   1.68599   125246.16
  16300.827   1.67904   126238.48
  16306.286   1.67575    127135.7
  16311.748   1.67408   127982.82
  16317.388   1.6754   129130.85
  16323.212   1.67794   130074.79
  16328.861   1.68038   131191.64
  16334.867   1.67805   132170.37
  16340.703    1.672937   133055.03
  16346.719   1.66897   134079.59
  16352.918   1.66579   135184.06
  16359.119   1.66292   136289.42
  16365.326   1.65959    137316.7
  16371.717   1.65685   138658.87
  16378.111   1.65344   139714.97
  16384.689    1.650487   141080.95
  16391.271   1.64826   141968.86
  16398.039   1.6449   142951.66
  16404.813   1.64129   144113.36
  16411.590   1.63749   145245.98
  16418.553   1.63464    146489.5
  16425.521   1.63225   147506.92
  16432.676   1.63038   148599.25
  16439.834   1.62898   149756.48
  16447.180   1.62703   150821.62
  16454.354   1.62432   152135.67
  16461.891   1.62181   153128.62
  16469.438   1.61829   154477.48
  16476.988   1.61562   155719.25
  16484.549    1.611588   156834.92
  16492.295   1.60694   158105.48
  16500.229   1.60283   159325.97
  16508.172   1.60021   160321.36
  16516.121   1.59799   161552.64
  16524.080   1.59564   162542.84
  16532.227    1.592136   163824.94
  16540.563   1.58887   164693.95
  16548.906   1.58506   166204.86
  16557.262   1.58132   167062.69
  16565.807   1.57802   168352.41
  16574.357   1.57565   169215.03
  16582.922    1.572145   170840.56
  16591.674   1.56848   172141.02
  16600.438   1.56501   173133.36
  16609.393   1.56076   174127.61
  16618.357   1.55636   175110.77
  16627.332   1.553   176118.83
  16636.502   1.54882    177457.8
  16645.682   1.54544   178063.66
  16655.053   1.54247   178892.44
  16664.254   1.53904   179812.12
  16673.832   1.53469   180736.72
  16683.420   1.53125    181357.2
  16693.023   1.52662   182127.61
  16702.635   1.52265   183363.92
  16712.445   1.51854   183533.12
  16722.264   1.51487   184393.25
  16732.281   1.51081   185175.27
  16742.313   1.50739    185944.2
  16752.355   1.50377   186878.03
  16762.596   1.49958   187253.77
  16772.852   1.49526   187770.41
  16783.117    1.490569   188389.97
  16793.584   1.48684   189088.42
  16804.063   1.48269   189676.78
  16814.744    1.478648   190223.05
  16825.438   1.47433   190635.22
  16836.146   1.47075    191075.3
  16847.059   1.46671   191725.28
  16857.982   1.46237   191530.17
  16868.922   1.45818   191695.97
  16880.064   1.45385   192109.66
  16891.223   1.44966   192251.27
  16902.396   1.44519   192414.78
  16913.773   1.44137   192286.19
  16925.166   1.43764   192115.52
  16936.576   1.43338   192229.73
  16948.191   1.42938   192371.87
  16959.822   1.42495   191731.91
  16971.471   1.42064   192441.86
  16983.326   1.41666    192008.7
  16995.197   1.4118   192295.45
  17001.332   1.40977    191962.8