File: data/Mn/Mn2O3_rt_01.xdi
# XDI/1.0
# Column.1: energy eV
# Column.2: i0
# Column.3: itrans
# Column.4: irefer
# Beamline.name: SSRL 4-3
# Detector.I0: N2 15cm
# Detector.I1: N2 30cm
# Detector.I2: N2 15cm
# Element.edge: K
# Element.symbol: Mn
# Mono.d_spacing: 1.92009
# Mono.name: Si(220)
# Mono.notes: unfocused, detuned 10%
# Sample.formula: Mn2O3
# Sample.name: Mn2O3
# Sample.prep: powder, mixed with B(OH)3
# Sample.reference: Mn filter
# Sample.temperature: room temperature
# Scan.start_time: 1995-06-20 04:07:07
# ///
#    Note: mono d_spacing is nominal!
#     217  E XMU I0
#-------------
#   energy   i0   itrans  irefer
    6520  31063.5  28860.3  15284
    6521  31061.5  28892.3  15301
    6522  31053.5  28912.3  15307
    6523  31041.5  28890.3  15264
    6524  31035.5  28876.3  15225
    6525  31025.5  28884.3  15222
    6526  31020.5  28864.3  15165
    6527  31017.5  28887.3  15175
    6528  31005.5  28828.3  15079
    6529  31000.5  28829.3  15057
    6530  30996.5  28820.3  15024
    6531.01  30992.5  28796.3  14971
    6532.01  30980.5  28795.3  14960
    6533.01  30962.5  28723.3  14843
    6534.01  30955.5  28709.3  14809
    6535.02  30952.5  28692.3  14760
    6535.32  30943.5  28657.3  14711
    6535.67  30948.5  28683.3  14732
    6536.02  30954.5  28681.3  14712
    6536.32  30946.5  28679.3  14715
    6536.67  30937.5  28598.3  14603
    6537.02  30923.5  28583.3  14587
    6537.33  30921.5  28558.3  14550
    6537.68  30918.5  28502.3  14470
    6537.98  30908.5  28461.3  14433
    6538.33  30899.5  28330.3  14269
    6538.68  30896.5  28241.3  14171
    6538.98  30888.5  28112.3  14020
    6539.34  30889.5  27978.3  13859
    6539.69  30890.5  27829.3  13666
    6539.99  30883.5  27702.3  13516
    6540.34  30883.5  27612.3  13427
    6540.64  30875.5  27530.3  13361
    6540.99  30873.5  27490.3  13358
    6541.35  30864.5  27401.3  13296
    6541.65  30860.5  27345.3  13256
    6542  30848.5  27233.3  13140
    6542.35  30853.5  27163.3  13039
    6542.65  30857.5  27138.3  12980
    6543.01  30845.5  27004.3  12748
    6543.31  30843.5  26984.3  12651
    6543.66  30844.5  26898.3  12424
    6544.01  30840.5  26849.3  12230
    6544.32  30831.5  26772.3  12028
    6544.67  30825.5  26648.3  11746
    6545.02  30821.5  26547.3  11536
    6545.32  30824.5  26428.3  11342
    6545.68  30827.5  26239.3  11108
    6545.98  30817.5  26019.3  10903
    6546.33  30805.5  25677.3  10642
    6546.68  30816.5  25341.3  10486
    6546.99  30803.5  24941.3  10291
    6547.34  30812.5  24480.3  10147
    6547.69  30807.5  23937.3  9970
    6547.99  30805.5  23535.3  9914
    6548.35  30816.5  23044.3  9820
    6548.65  30781.5  22557.3  9660
    6549  30792.5  22114.3  9600
    6549.35  30774.5  21627.3  9493
    6549.66  30777.5  21266.3  9470
    6550.01  30772.5  20777.3  9364
    6550.31  30766.5  20420.3  9354
    6550.67  30763.5  19974.3  9259
    6551.02  30764.5  19605.3  9245
    6551.32  30746.5  19254.3  9177
    6551.68  30756.5  18914.3  9178
    6551.98  30746.5  18598.3  9165
    6552.33  30748.5  18181.3  9087
    6552.69  30740.5  17794.3  9082
    6552.99  30741.5  17459.3  9049
    6553.34  30745.5  17092.3  9058
    6553.65  30739.5  16769.3  9033
    6554  30735.5  16401.3  8990
    6554.35  30731.5  16089.3  8980
    6554.66  30717.5  15812.3  8917
    6555.01  30722.5  15591.3  8931
    6555.31  30722.5  15419.3  8922
    6555.67  30704.5  15184.3  8836
    6556.02  30704.5  15043.3  8824
    6556.32  30705.5  14966.3  8836
    6556.68  30706.5  14899.3  8851
    6556.98  30692.5  14804.3  8799
    6557.34  30694.5  14743.3  8776
    6557.69  30691.5  14696.3  8763
    6557.99  30681.5  14659.3  8755
    6558.35  30678.5  14603.3  8710
    6558.65  30668.5  14588.3  8720
    6559.01  30674.5  14551.3  8674
    6559.31  30675.5  14593.3  8711
    6559.66  30653.5  14550.3  8613
    6560.02  30654.5  14614.3  8619
    6560.32  30656.5  14710.3  8657
    6560.68  30661.5  14770.3  8617
    6560.98  30644.5  14818.3  8591
    6561.33  30644.5  14913.3  8601
    6561.69  30647.5  15003.3  8616
    6561.99  30636.5  15021.3  8574
    6562.35  30628.5  15074.3  8587
    6562.65  30621.5  15076.3  8547
    6563.01  30612.5  15076.3  8517
    6563.31  30623.5  15123.3  8545
    6563.66  30613.5  15112.3  8506
    6564.02  30602.5  15135.3  8512
    6564.32  30601.5  15123.3  8468
    6564.68  30597.5  15174.3  8493
    6564.98  30588.5  15179.3  8461
    6565.34  30595.5  15224.3  8469
    6565.64  30584.5  15242.3  8444
    6566  30585.5  15259.3  8405
    6566.35  30581.5  15302.3  8400
    6566.66  30582.5  15325.3  8374
    6567.01  30580.5  15378.3  8379
    6567.32  30566.5  15384.3  8342
    6567.67  30569.5  15414.3  8326
    6567.98  30559.5  15434.3  8316
    6568.33  30566.5  15475.3  8318
    6568.69  30552.5  15482.3  8296
    6568.99  30550.5  15498.3  8285
    6569.35  30546.5  15515.3  8283
    6569.65  30536.5  15485.3  8223
    6570.01  30528.5  15489.3  8216
    6570.31  30530.5  15508.3  8228
    6570.67  30522.5  15459.3  8160
    6571.02  30518.5  15460.3  8164
    6571.33  30509.5  15449.3  8155
    6571.69  30518.5  15479.3  8194
    6571.99  30497.5  15410.3  8118
    6572.35  30500.5  15405.3  8114
    6572.65  30498.5  15396.3  8108
    6573.01  30485.5  15357.3  8060
    6573.31  30494.5  15416.3  8136
    6573.67  30491.5  15358.3  8054
    6573.98  30488.5  15385.3  8076
    6574.33  30481.5  15350.3  8008
    6574.69  30481.5  15400.3  8049
    6574.99  30468.5  15403.3  8020
    6575.35  30468.5  15425.3  8000
    6575.65  30462.5  15458.3  8004
    6576.01  30452.5  15453.3  7936
    6576.32  30446.5  15508.3  7952
    6576.67  30439.5  15517.3  7891
    6576.98  30431.5  15567.3  7895
    6577.34  30441.5  15641.3  7903
    6577.69  30441.5  15704.3  7905
    6578  30440.5  15758.3  7899
    6578.35  30428.5  15772.3  7835
    6578.66  30420.5  15844.3  7860
    6579.02  30420.5  15870.3  7805
    6579.32  30413.5  15931.3  7816
    6579.68  30419.5  15998.3  7811
    6579.98  30416.5  16058.3  7823
    6580.75  30392.5  16145.3  7763
    6581.52  30382.5  16250.3  7731
    6582.28  30381.5  16382.3  7743
    6583.05  30375.5  16448.3  7688
    6583.81  30370.5  16535.3  7677
    6584.53  30360.5  16581.3  7648
    6585.29  30344.5  16630.3  7637
    6586.06  30335.5  16655.3  7604
    6586.82  30320.5  16660.3  7567
    6587.59  30310.5  16655.3  7526
    6588.36  30299.5  16647.3  7489
    6589.07  30297.5  16652.3  7480
    6589.84  30287.5  16602.3  7410
    6590.61  30276.5  16576.3  7386
    6591.38  30274.5  16546.3  7360
    6592.15  30264.5  16510.3  7358
    6592.86  30254.5  16435.3  7310
    6593.63  30237.5  16324.3  7248
    6594.4  30237.5  16247.3  7232
    6595.17  30231.5  16152.3  7204
    6595.89  30221.5  16038.3  7165
    6596.65  30208.5  15911.3  7112
    6597.42  30206.5  15827.3  7108
    6598.19  30190.5  15701.3  7040
    6598.96  30184.5  15654.3  7058
    6599.68  30173.5  15576.3  7023
    6600.45  30166.5  15497.3  6989
    6601.22  30155.5  15413.3  6952
    6601.99  30153.5  15350.3  6930
    6602.71  30153.5  15320.3  6939
    6603.48  30140.5  15234.3  6870
    6604.26  30129.5  15209.3  6868
    6604.98  30113.5  15160.3  6822
    6605.75  30110.5  15156.3  6823
    6606.52  30095.5  15099.3  6756
    6607.29  30098.5  15133.3  6782
    6608.01  30082.5  15124.3  6762
    6608.78  30079.5  15106.3  6719
    6609.56  30059.5  15080.3  6674
    6610.28  30054.5  15086.3  6653
    6611.05  30053.5  15110.3  6653
    6611.82  30046.5  15099.3  6601
    6612.6  30043.5  15128.3  6601
    6613.32  30022.5  15094.3  6538
    6614.09  30024.5  15113.3  6522
    6614.87  30018.5  15144.3  6530
    6615.59  30000.5  15128.3  6480
    6616.36  29994.5  15146.3  6473
    6617.14  29979.5  15135.3  6428
    6617.86  29970.5  15145.3  6423
    6618.64  29956.5  15117.3  6364
    6619.41  29953.5  15135.3  6368
    6620.14  29946.5  15140.3  6359
    6620.91  29941.5  15123.3  6325
    6621.69  29927.5  15121.3  6311
    6622.41  29916.5  15082.3  6261
    6623.19  29899.5  15063.3  6237
    6623.91  29891.5  15030.3  6202
    6624.69  29902.5  15038.3  6212
    6625.47  29882.5  14985.3  6169
    6626.19  29871.5  14954.3  6151
    6626.97  29849.5  14911.3  6120
    6627.75  29849.5  14871.3  6090
    6628.48  29843.5  14873.3  6107
    6629.25  29829.5  14823.3  6060
    6629.98  29820.5  14820.3  6066