File: data/Mn/Mn2O3_rt_03.xdi
# XDI/1.0
# Column.1: energy eV
# Column.2: i0
# Column.3: itrans
# Column.4: irefer
# Beamline.name: SSRL 4-3
# Detector.I0: N2 15cm
# Detector.I1: N2 30cm
# Detector.I2: N2 15cm
# Element.edge: K
# Element.symbol: Mn
# Mono.d_spacing: 1.92009
# Mono.name: Si(220)
# Mono.notes: unfocused, detuned 10%
# Sample.formula: Mn2O3
# Sample.name: Mn2O3
# Sample.prep: powder, mixed with B(OH)3
# Sample.reference: Mn filter
# Sample.temperature: room temperature
# Scan.start_time: 1995-06-20 04:07:07
# ///
#    Note: mono d_spacing is nominal!
#     217  E XMU I0
#-------------
#   energy   i0   itrans  irefer
    6520  30542.5  27520.3  13265
    6521  30542.5  27539.3  13267
    6522  30541.5  27591.3  13311
    6523  30524.5  27525.3  13210
    6524  30516.5  27515.3  13183
    6525  30526.5  27566.3  13213
    6526  30524.5  27556.3  13173
    6527  30503.5  27503.3  13104
    6528  30498.5  27490.3  13064
    6529  30495.5  27523.3  13089
    6530  30488.5  27483.3  13021
    6531.01  30475.5  27452.3  12966
    6532.01  30461.5  27427.3  12924
    6533.01  30452.5  27406.3  12875
    6534.01  30449.5  27406.3  12851
    6535.02  30445.5  27357.3  12769
    6535.32  30440.5  27344.3  12751
    6535.67  30446.5  27338.3  12726
    6536.02  30446.5  27355.3  12739
    6536.32  30432.5  27328.3  12710
    6536.67  30425.5  27266.3  12625
    6537.02  30421.5  27255.3  12611
    6537.33  30416.5  27216.3  12560
    6537.68  30416.5  27183.3  12511
    6537.98  30412.5  27137.3  12461
    6538.33  30414.5  27076.3  12386
    6538.68  30406.5  26930.3  12216
    6538.98  30401.5  26858.3  12141
    6539.34  30401.5  26675.3  11922
    6539.69  30398.5  26517.3  11728
    6539.99  30391.5  26407.3  11608
    6540.34  30385.5  26281.3  11481
    6540.64  30380.5  26265.3  11506
    6540.99  30378.5  26170.3  11436
    6541.35  30380.5  26131.3  11427
    6541.65  30370.5  26060.3  11378
    6542  30372.5  25958.3  11257
    6542.35  30367.5  25880.3  11154
    6542.65  30362.5  25789.3  11018
    6543.01  30361.5  25733.3  10891
    6543.31  30366.5  25672.3  10734
    6543.66  30366.5  25625.3  10571
    6544.01  30364.5  25560.3  10367
    6544.32  30350.5  25485.3  10175
    6544.67  30346.5  25378.3  9926
    6545.02  30346.5  25272.3  9707
    6545.32  30341.5  25171.3  9544
    6545.68  30340.5  24956.3  9292
    6545.98  30330.5  24753.3  9118
    6546.33  30334.5  24424.3  8872
    6546.68  30334.5  24073.3  8698
    6546.99  30323.5  23692.3  8530
    6547.34  30322.5  23211.3  8366
    6547.69  30317.5  22694.3  8219
    6547.99  30320.5  22257.3  8111
    6548.35  30315.5  21764.3  8025
    6548.65  30308.5  21368.3  7964
    6549  30310.5  20921.3  7901
    6549.35  30304.5  20440.3  7787
    6549.66  30290.5  20069.3  7755
    6550.01  30289.5  19603.3  7680
    6550.31  30282.5  19226.3  7630
    6550.67  30272.5  18764.3  7531
    6551.02  30278.5  18405.3  7520
    6551.32  30273.5  18109.3  7509
    6551.68  30272.5  17721.3  7453
    6551.98  30272.5  17434.3  7461
    6552.33  30274.5  17037.3  7415
    6552.69  30267.5  16658.3  7399
    6552.99  30258.5  16313.3  7362
    6553.34  30263.5  15937.3  7351
    6553.65  30262.5  15631.3  7340
    6554  30267.5  15294.3  7333
    6554.35  30253.5  14960.3  7295
    6554.66  30247.5  14739.3  7297
    6555.01  30252.5  14491.3  7273
    6555.31  30243.5  14298.3  7241
    6555.67  30237.5  14112.3  7214
    6556.02  30238.5  13966.3  7187
    6556.32  30242.5  13932.3  7251
    6556.68  30238.5  13807.3  7194
    6556.98  30231.5  13748.3  7184
    6557.34  30226.5  13675.3  7151
    6557.69  30230.5  13651.3  7164
    6557.99  30226.5  13607.3  7146
    6558.35  30220.5  13562.3  7121
    6558.65  30226.5  13563.3  7139
    6559.01  30222.5  13527.3  7102
    6559.31  30222.5  13558.3  7125
    6559.66  30214.5  13556.3  7078
    6560.02  30215.5  13625.3  7093
    6560.32  30216.5  13681.3  7079
    6560.68  30205.5  13752.3  7065
    6560.98  30208.5  13843.3  7079
    6561.33  30197.5  13911.3  7065
    6561.69  30193.5  13963.3  7036
    6561.99  30181.5  14004.3  7030
    6562.35  30180.5  14032.3  7003
    6562.65  30179.5  14082.3  7029
    6563.01  30172.5  14097.3  7014
    6563.31  30167.5  14114.3  7011
    6563.66  30170.5  14132.3  7004
    6564.02  30159.5  14115.3  6962
    6564.32  30160.5  14161.3  6990
    6564.68  30146.5  14135.3  6925
    6564.98  30150.5  14179.3  6939
    6565.34  30152.5  14223.3  6944
    6565.64  30155.5  14264.3  6945
    6566  30150.5  14308.3  6945
    6566.35  30147.5  14315.3  6894
    6566.66  30135.5  14348.3  6887
    6567.01  30150.5  14419.3  6909
    6567.32  30136.5  14427.3  6880
    6567.67  30134.5  14462.3  6872
    6567.98  30134.5  14481.3  6856
    6568.33  30123.5  14491.3  6831
    6568.69  30119.5  14507.3  6815
    6568.99  30107.5  14531.3  6825
    6569.35  30111.5  14524.3  6788
    6569.65  30115.5  14565.3  6818
    6570.01  30110.5  14550.3  6785
    6570.31  30090.5  14536.3  6767
    6570.67  30093.5  14526.3  6746
    6571.02  30084.5  14537.3  6759
    6571.33  30076.5  14515.3  6735
    6571.69  30074.5  14496.3  6715
    6571.99  30069.5  14475.3  6699
    6572.35  30059.5  14454.3  6682
    6572.65  30055.5  14469.3  6706
    6573.01  30058.5  14450.3  6682
    6573.31  30059.5  14457.3  6688
    6573.67  30050.5  14426.3  6646
    6573.98  30044.5  14446.3  6662
    6574.33  30050.5  14446.3  6636
    6574.69  30032.5  14439.3  6609
    6574.99  30029.5  14468.3  6615
    6575.35  30032.5  14491.3  6601
    6575.65  30030.5  14527.3  6602
    6576.01  30030.5  14560.3  6583
    6576.32  30017.5  14588.3  6568
    6576.67  30031.5  14660.3  6577
    6576.98  30024.5  14730.3  6608
    6577.34  30026.5  14766.3  6570
    6577.69  30027.5  14827.3  6567
    6578  30024.5  14905.3  6591
    6578.35  30018.5  14920.3  6532
    6578.66  30007.5  14957.3  6515
    6579.02  30003.5  15006.3  6497
    6579.32  30000.5  15093.3  6536
    6579.68  30000.5  15131.3  6498
    6579.98  29994.5  15192.3  6512
    6580.75  29985.5  15296.3  6473
    6581.52  29975.5  15402.3  6454
    6582.28  29967.5  15488.3  6416
    6583.05  29969.5  15612.3  6430
    6583.81  29962.5  15710.3  6434
    6584.53  29945.5  15731.3  6379
    6585.29  29944.5  15796.3  6377
    6586.06  29950.5  15838.3  6364
    6586.82  29924.5  15814.3  6300
    6587.59  29919.5  15847.3  6303
    6588.36  29921.5  15864.3  6297
    6589.07  29899.5  15821.3  6239
    6589.84  29894.5  15820.3  6230
    6590.61  29882.5  15771.3  6178
    6591.38  29892.5  15785.3  6203
    6592.15  29877.5  15718.3  6158
    6592.86  29862.5  15646.3  6122
    6593.63  29860.5  15583.3  6109
    6594.4  29845.5  15474.3  6065
    6595.17  29836.5  15374.3  6039
    6595.89  29836.5  15285.3  6024
    6596.65  29824.5  15171.3  5989
    6597.42  29818.5  15077.3  5974
    6598.19  29814.5  15003.3  5966
    6598.96  29803.5  14904.3  5919
    6599.68  29808.5  14866.3  5930
    6600.45  29787.5  14750.3  5860
    6601.22  29788.5  14699.3  5855
    6601.99  29791.5  14655.3  5856
    6602.71  29772.5  14585.3  5818
    6603.48  29779.5  14561.3  5820
    6604.26  29764.5  14510.3  5785
    6604.98  29754.5  14478.3  5762
    6605.75  29753.5  14467.3  5751
    6606.52  29744.5  14433.3  5711
    6607.29  29729.5  14442.3  5715
    6608.01  29727.5  14421.3  5676
    6608.78  29718.5  14428.3  5664
    6609.56  29720.5  14436.3  5650
    6610.28  29716.5  14457.3  5652
    6611.05  29703.5  14450.3  5621
    6611.82  29695.5  14453.3  5598
    6612.6  29689.5  14480.3  5598
    6613.32  29676.5  14462.3  5551
    6614.09  29670.5  14485.3  5545
    6614.87  29657.5  14479.3  5509
    6615.59  29650.5  14481.3  5480
    6616.36  29638.5  14502.3  5478
    6617.14  29628.5  14492.3  5441
    6617.86  29620.5  14516.3  5445
    6618.64  29604.5  14481.3  5387
    6619.41  29597.5  14488.3  5379
    6620.14  29593.5  14495.3  5369
    6620.91  29584.5  14484.3  5339
    6621.69  29567.5  14461.3  5310
    6622.41  29567.5  14467.3  5307
    6623.19  29556.5  14468.3  5310
    6623.91  29551.5  14424.3  5262
    6624.69  29547.5  14414.3  5259
    6625.47  29526.5  14357.3  5211
    6626.19  29514.5  14330.3  5198
    6626.97  29512.5  14327.3  5214
    6627.75  29509.5  14289.3  5184
    6628.48  29497.5  14256.3  5162
    6629.25  29486.5  14220.3  5134
    6629.98  29479.5  14221.3  5142