File: data/Mn/Mn2O3_rt_02.xdi
# XDI/1.0
# Column.1: energy eV
# Column.2: i0
# Column.3: itrans
# Column.4: irefer
# Beamline.name: SSRL 4-3
# Detector.I0: N2 15cm
# Detector.I1: N2 30cm
# Detector.I2: N2 15cm
# Element.edge: K
# Element.symbol: Mn
# Mono.d_spacing: 1.92009
# Mono.name: Si(220)
# Mono.notes: unfocused, detuned 10%
# Sample.formula: Mn2O3
# Sample.name: Mn2O3
# Sample.prep: powder, mixed with B(OH)3
# Sample.reference: Mn filter
# Sample.temperature: room temperature
# Scan.start_time: 1995-06-20 04:07:07
# ///
#    Note: mono d_spacing is nominal!
#     217  E XMU I0
#-------------
#   energy   i0   itrans  irefer
    6520  30732.5  28067.3  14136
    6521  30725.5  28078.3  14137
    6522  30714.5  28063.3  14102
    6523  30702.5  28058.3  14080
    6524  30702.5  28051.3  14046
    6525  30691.5  28043.3  14024
    6526  30689.5  28014.3  13957
    6527  30666.5  27974.3  13894
    6528  30666.5  27978.3  13873
    6529  30653.5  27939.3  13810
    6530  30659.5  27969.3  13824
    6531.01  30649.5  27938.3  13764
    6532.01  30635.5  27909.3  13711
    6533.01  30627.5  27889.3  13668
    6534.01  30622.5  27875.3  13632
    6535.02  30623.5  27850.3  13569
    6535.32  30626.5  27859.3  13572
    6535.67  30627.5  27845.3  13538
    6536.02  30604.5  27794.3  13482
    6536.32  30600.5  27767.3  13444
    6536.67  30593.5  27727.3  13389
    6537.02  30583.5  27700.3  13353
    6537.33  30592.5  27719.3  13363
    6537.68  30594.5  27682.3  13318
    6537.98  30585.5  27603.3  13221
    6538.33  30579.5  27530.3  13143
    6538.68  30579.5  27405.3  12989
    6538.98  30579.5  27298.3  12865
    6539.34  30577.5  27157.3  12694
    6539.69  30575.5  26989.3  12487
    6539.99  30574.5  26876.3  12355
    6540.34  30563.5  26758.3  12241
    6540.64  30563.5  26729.3  12241
    6540.99  30555.5  26640.3  12185
    6541.35  30560.5  26600.3  12175
    6541.65  30563.5  26538.3  12119
    6542  30565.5  26482.3  12063
    6542.35  30562.5  26378.3  11922
    6542.65  30552.5  26287.3  11788
    6543.01  30560.5  26232.3  11650
    6543.31  30546.5  26158.3  11501
    6543.66  30539.5  26061.3  11263
    6544.01  30541.5  26012.3  11076
    6544.32  30543.5  25977.3  10912
    6544.67  30523.5  25807.3  10591
    6545.02  30520.5  25709.3  10386
    6545.32  30524.5  25603.3  10204
    6545.68  30524.5  25424.3  9998
    6545.98  30514.5  25200.3  9794
    6546.33  30509.5  24869.3  9553
    6546.68  30514.5  24526.3  9384
    6546.99  30508.5  24133.3  9205
    6547.34  30502.5  23639.3  9029
    6547.69  30501.5  23105.3  8861
    6547.99  30502.5  22706.3  8808
    6548.35  30508.5  22205.3  8694
    6548.65  30490.5  21810.3  8644
    6549  30487.5  21309.3  8514
    6549.35  30493.5  20887.3  8472
    6549.66  30479.5  20494.3  8414
    6550.01  30479.5  19996.3  8298
    6550.31  30474.5  19665.3  8305
    6550.67  30479.5  19223.3  8221
    6551.02  30472.5  18844.3  8199
    6551.32  30477.5  18549.3  8182
    6551.68  30470.5  18156.3  8124
    6551.98  30468.5  17858.3  8117
    6552.33  30451.5  17420.3  8033
    6552.69  30450.5  17044.3  8025
    6552.99  30446.5  16697.3  7984
    6553.34  30445.5  16312.3  7971
    6553.65  30451.5  16033.3  7992
    6554  30454.5  15673.3  7956
    6554.35  30443.5  15352.3  7934
    6554.66  30450.5  15129.3  7928
    6555.01  30446.5  14871.3  7899
    6555.31  30446.5  14690.3  7873
    6555.67  30445.5  14523.3  7867
    6556.02  30442.5  14378.3  7850
    6556.32  30438.5  14274.3  7824
    6556.68  30432.5  14188.3  7819
    6556.98  30422.5  14104.3  7781
    6557.34  30419.5  14050.3  7763
    6557.69  30425.5  14025.3  7776
    6557.99  30417.5  13974.3  7745
    6558.35  30412.5  13918.3  7709
    6558.65  30421.5  13938.3  7748
    6559.01  30410.5  13909.3  7727
    6559.31  30397.5  13881.3  7680
    6559.66  30392.5  13923.3  7687
    6560.02  30395.5  13969.3  7669
    6560.32  30388.5  14049.3  7691
    6560.68  30382.5  14088.3  7634
    6560.98  30381.5  14159.3  7626
    6561.33  30380.5  14253.3  7635
    6561.69  30386.5  14335.3  7639
    6561.99  30381.5  14394.3  7653
    6562.35  30369.5  14389.3  7591
    6562.65  30365.5  14422.3  7594
    6563.01  30361.5  14429.3  7570
    6563.31  30364.5  14464.3  7588
    6563.66  30364.5  14474.3  7571
    6564.02  30352.5  14461.3  7532
    6564.32  30349.5  14501.3  7557
    6564.68  30348.5  14493.3  7504
    6564.98  30357.5  14572.3  7563
    6565.34  30362.5  14583.3  7523
    6565.64  30358.5  14622.3  7528
    6566  30354.5  14642.3  7495
    6566.35  30345.5  14657.3  7456
    6566.66  30343.5  14724.3  7487
    6567.01  30342.5  14736.3  7445
    6567.32  30342.5  14793.3  7469
    6567.67  30340.5  14816.3  7440
    6567.98  30341.5  14865.3  7462
    6568.33  30315.5  14811.3  7361
    6568.69  30328.5  14861.3  7384
    6568.99  30330.5  14910.3  7419
    6569.35  30321.5  14891.3  7371
    6569.65  30314.5  14936.3  7409
    6570.01  30314.5  14900.3  7344
    6570.31  30299.5  14890.3  7327
    6570.67  30308.5  14899.3  7328
    6571.02  30299.5  14881.3  7307
    6571.33  30291.5  14865.3  7287
    6571.69  30287.5  14837.3  7258
    6571.99  30298.5  14884.3  7315
    6572.35  30285.5  14821.3  7248
    6572.65  30282.5  14835.3  7277
    6573.01  30276.5  14796.3  7225
    6573.31  30261.5  14789.3  7226
    6573.67  30264.5  14779.3  7204
    6573.98  30252.5  14767.3  7181
    6574.33  30261.5  14779.3  7171
    6574.69  30260.5  14819.3  7189
    6574.99  30241.5  14819.3  7170
    6575.35  30249.5  14840.3  7145
    6575.65  30241.5  14898.3  7175
    6576.01  30248.5  14917.3  7136
    6576.32  30251.5  14969.3  7150
    6576.67  30244.5  14992.3  7107
    6576.98  30245.5  15052.3  7120
    6577.34  30241.5  15091.3  7089
    6577.69  30239.5  15154.3  7083
    6578  30228.5  15197.3  7076
    6578.35  30234.5  15240.3  7046
    6578.66  30230.5  15322.3  7081
    6579.02  30234.5  15361.3  7044
    6579.32  30231.5  15423.3  7049
    6579.68  30222.5  15447.3  7003
    6579.98  30226.5  15540.3  7049
    6580.75  30220.5  15663.3  7031
    6581.52  30208.5  15755.3  6987
    6582.28  30197.5  15880.3  6997
    6583.05  30185.5  15931.3  6929
    6583.81  30176.5  16033.3  6938
    6584.53  30167.5  16079.3  6906
    6585.29  30162.5  16107.3  6861
    6586.06  30148.5  16130.3  6830
    6586.82  30143.5  16131.3  6786
    6587.59  30149.5  16192.3  6819
    6588.36  30135.5  16163.3  6762
    6589.07  30126.5  16176.3  6765
    6589.84  30119.5  16142.3  6714
    6590.61  30117.5  16142.3  6717
    6591.38  30105.5  16089.3  6671
    6592.15  30096.5  16026.3  6628
    6592.86  30091.5  16001.3  6645
    6593.63  30083.5  15918.3  6609
    6594.4  30083.5  15843.3  6596
    6595.17  30065.5  15716.3  6541
    6595.89  30061.5  15622.3  6522
    6596.65  30049.5  15521.3  6503
    6597.42  30046.5  15413.3  6464
    6598.19  30022.5  15289.3  6403
    6598.96  30018.5  15205.3  6372
    6599.68  30004.5  15139.3  6359
    6600.45  29998.5  15074.3  6345
    6601.22  29984.5  14975.3  6290
    6601.99  29994.5  14961.3  6324
    6602.71  29985.5  14887.3  6280
    6603.48  29969.5  14835.3  6253
    6604.26  29960.5  14794.3  6229
    6604.98  29955.5  14781.3  6226
    6605.75  29953.5  14768.3  6214
    6606.52  29945.5  14709.3  6143
    6607.29  29949.5  14773.3  6205
    6608.01  29940.5  14743.3  6155
    6608.78  29925.5  14723.3  6118
    6609.56  29911.5  14701.3  6072
    6610.28  29906.5  14717.3  6066
    6611.05  29903.5  14730.3  6052
    6611.82  29892.5  14741.3  6037
    6612.6  29858.5  14718.3  5988
    6613.32  29851.5  14713.3  5949
    6614.09  29842.5  14730.3  5941
    6614.87  29838.5  14738.3  5917
    6615.59  29832.5  14771.3  5930
    6616.36  29821.5  14760.3  5884
    6617.14  29814.5  14766.3  5863
    6617.86  29806.5  14769.3  5845
    6618.64  29794.5  14752.3  5805
    6619.41  29785.5  14773.3  5812
    6620.14  29762.5  14729.3  5744
    6620.91  29764.5  14743.3  5746
    6621.69  29754.5  14720.3  5707
    6622.41  29750.5  14735.3  5720
    6623.19  29733.5  14689.3  5669
    6623.91  29729.5  14702.3  5688
    6624.69  29708.5  14642.3  5631
    6625.47  29698.5  14617.3  5619
    6626.19  29682.5  14575.3  5589
    6626.97  29679.5  14542.3  5566
    6627.75  29665.5  14513.3  5553
    6628.48  29650.5  14470.3  5521
    6629.25  29635.5  14450.3  5514
    6629.98  29636.5  14447.3  5511