File: data/Mn/Mn3O4_rt_02.xdi
# XDI/1.0
# Column.1: energy eV
# Column.2: i0
# Column.3: itrans
# Column.4: irefer
# Beamline.name: SSRL 4-3
# Detector.I0: N2 15cm
# Detector.I1: N2 30cm
# Detector.I2: N2 15cm
# Element.edge: K
# Element.symbol: Mn
# Mono.d_spacing: 1.92009
# Mono.name: Si(220)
# Mono.notes: unfocused, detuned 10%
# Sample.formula: Mn3O4
# Sample.name: Mn3O4  haussmanite
# Sample.prep: powder, mixed with B(OH)3
# Sample.reference: Mn filter
# Sample.temperature: room temperature
# Scan.start_time: 1995-06-20 04:30:44
# ///
#    Note: mono d_spacing is nominal!
#     217  E XMU I0
#-------------
#   energy   i0   itrans  irefer
    6520  28737.5  22035.3  7653
    6521  28730.5  22051.3  7660
    6522  28728.5  22073.3  7667
    6523  28727.5  22079.3  7659
    6524  28701.5  22058.3  7633
    6525  28701.5  22063.3  7623
    6526  28691.5  22052.3  7600
    6527  28679.5  22039.3  7577
    6528  28670.5  22023.3  7551
    6529  28666.5  22033.3  7546
    6530  28659.5  22017.3  7522
    6531.01  28646.5  22010.3  7510
    6532.01  28647.5  22000.3  7487
    6533.01  28630.5  21979.3  7469
    6534.01  28630.5  21946.3  7424
    6535.02  28615.5  21888.3  7371
    6535.32  28625.5  21889.3  7367
    6535.67  28608.5  21846.3  7334
    6536.02  28605.5  21832.3  7320
    6536.32  28594.5  21789.3  7283
    6536.67  28600.5  21784.3  7280
    6537.02  28592.5  21721.3  7227
    6537.33  28590.5  21690.3  7210
    6537.68  28581.5  21601.3  7136
    6537.98  28580.5  21547.3  7108
    6538.33  28581.5  21407.3  7004
    6538.68  28574.5  21234.3  6884
    6538.98  28576.5  21058.3  6778
    6539.34  28573.5  20752.3  6577
    6539.69  28569.5  20432.3  6373
    6539.99  28569.5  20234.3  6251
    6540.34  28559.5  20103.3  6164
    6540.64  28547.5  20088.3  6140
    6540.99  28548.5  20129.3  6148
    6541.35  28546.5  20123.3  6127
    6541.65  28557.5  20097.3  6110
    6542  28553.5  19997.3  6040
    6542.35  28542.5  19841.3  5923
    6542.65  28536.5  19709.3  5832
    6543.01  28536.5  19511.3  5670
    6543.31  28543.5  19372.3  5566
    6543.66  28532.5  19107.3  5361
    6544.01  28527.5  18834.3  5160
    6544.32  28515.5  18561.3  4968
    6544.67  28514.5  18226.3  4760
    6545.02  28508.5  17855.3  4555
    6545.32  28497.5  17502.3  4373
    6545.68  28501.5  17082.3  4190
    6545.98  28498.5  16693.3  4020
    6546.33  28498.5  16220.3  3835
    6546.68  28502.5  15783.3  3693
    6546.99  28484.5  15397.3  3548
    6547.34  28482.5  15024.3  3434
    6547.69  28479.5  14704.3  3329
    6547.99  28481.5  14511.3  3292
    6548.35  28480.5  14257.3  3197
    6548.65  28499.5  14127.3  3184
    6549  28489.5  13911.3  3113
    6549.35  28475.5  13712.3  3063
    6549.66  28486.5  13568.3  3037
    6550.01  28478.5  13367.3  2984
    6550.31  28462.5  13220.3  2965
    6550.67  28471.5  13038.3  2915
    6551.02  28481.5  12927.3  2929
    6551.32  28483.5  12789.3  2884
    6551.68  28468.5  12660.3  2859
    6551.98  28464.5  12596.3  2866
    6552.33  28472.5  12501.3  2832
    6552.69  28451.5  12437.3  2822
    6552.99  28460.5  12404.3  2820
    6553.34  28464.5  12384.3  2840
    6553.65  28443.5  12305.3  2797
    6554  28430.5  12230.3  2767
    6554.35  28426.5  12173.3  2757
    6554.66  28419.5  12138.3  2768
    6555.01  28419.5  12053.3  2737
    6555.31  28418.5  11999.3  2732
    6555.67  28411.5  11927.3  2726
    6556.02  28409.5  11836.3  2704
    6556.32  28419.5  11809.3  2737
    6556.68  28407.5  11688.3  2699
    6556.98  28410.5  11646.3  2722
    6557.34  28390.5  11534.3  2687
    6557.69  28400.5  11468.3  2683
    6557.99  28393.5  11423.3  2688
    6558.35  28389.5  11357.3  2660
    6558.65  28386.5  11355.3  2678
    6559.01  28382.5  11325.3  2644
    6559.31  28372.5  11351.3  2651
    6559.66  28369.5  11390.3  2646
    6560.02  28373.5  11458.3  2646
    6560.32  28377.5  11540.3  2659
    6560.68  28370.5  11608.3  2638
    6560.98  28369.5  11716.3  2671
    6561.33  28359.5  11774.3  2639
    6561.69  28347.5  11869.3  2652
    6561.99  28356.5  11942.3  2653
    6562.35  28352.5  12022.3  2661
    6562.65  28341.5  12063.3  2649
    6563.01  28338.5  12107.3  2634
    6563.31  28339.5  12178.3  2661
    6563.66  28332.5  12194.3  2631
    6564.02  28333.5  12243.3  2646
    6564.32  28336.5  12270.3  2647
    6564.68  28335.5  12284.3  2646
    6564.98  28342.5  12308.3  2656
    6565.34  28342.5  12300.3  2646
    6565.64  28322.5  12277.3  2627
    6566  28320.5  12246.3  2607
    6566.35  28330.5  12244.3  2613
    6566.66  28328.5  12235.3  2617
    6567.01  28321.5  12203.3  2603
    6567.32  28327.5  12193.3  2602
    6567.67  28314.5  12152.3  2580
    6567.98  28320.5  12159.3  2599
    6568.33  28312.5  12117.3  2573
    6568.69  28312.5  12117.3  2578
    6568.99  28309.5  12105.3  2568
    6569.35  28290.5  12094.3  2563
    6569.65  28297.5  12116.3  2579
    6570.01  28294.5  12100.3  2555
    6570.31  28290.5  12113.3  2558
    6570.67  28291.5  12135.3  2558
    6571.02  28272.5  12129.3  2534
    6571.33  28282.5  12172.3  2557
    6571.69  28271.5  12177.3  2534
    6571.99  28287.5  12223.3  2556
    6572.35  28270.5  12230.3  2539
    6572.65  28268.5  12253.3  2541
    6573.01  28263.5  12283.3  2547
    6573.31  28255.5  12290.3  2536
    6573.67  28247.5  12291.3  2516
    6573.98  28245.5  12308.3  2515
    6574.33  28250.5  12331.3  2519
    6574.69  28245.5  12341.3  2511
    6574.99  28243.5  12358.3  2517
    6575.35  28224.5  12354.3  2498
    6575.65  28231.5  12372.3  2497
    6576.01  28224.5  12379.3  2491
    6576.32  28232.5  12404.3  2503
    6576.67  28225.5  12417.3  2502
    6576.98  28218.5  12413.3  2484
    6577.34  28207.5  12424.3  2479
    6577.69  28205.5  12440.3  2474
    6578  28208.5  12473.3  2488
    6578.35  28199.5  12472.3  2468
    6578.66  28203.5  12517.3  2489
    6579.02  28197.5  12522.3  2469
    6579.32  28190.5  12536.3  2462
    6579.68  28200.5  12585.3  2482
    6579.98  28195.5  12607.3  2481
    6580.75  28184.5  12655.3  2471
    6581.52  28181.5  12721.3  2479
    6582.28  28160.5  12753.3  2460
    6583.05  28158.5  12804.3  2468
    6583.81  28150.5  12826.3  2451
    6584.53  28144.5  12863.3  2466
    6585.29  28142.5  12850.3  2433
    6586.06  28148.5  12885.3  2459
    6586.82  28134.5  12851.3  2426
    6587.59  28127.5  12850.3  2431
    6588.36  28115.5  12805.3  2392
    6589.07  28111.5  12803.3  2392
    6589.84  28100.5  12786.3  2377
    6590.61  28082.5  12758.3  2352
    6591.38  28082.5  12758.3  2351
    6592.15  28073.5  12726.3  2328
    6592.86  28062.5  12717.3  2336
    6593.63  28065.5  12682.3  2320
    6594.4  28066.5  12645.3  2308
    6595.17  28049.5  12593.3  2290
    6595.89  28036.5  12564.3  2297
    6596.65  28024.5  12507.3  2266
    6597.42  28021.5  12491.3  2270
    6598.19  28008.5  12442.3  2234
    6598.96  28005.5  12442.3  2238
    6599.68  27994.5  12438.3  2233
    6600.45  27996.5  12434.3  2220
    6601.22  27976.5  12430.3  2215
    6601.99  27969.5  12433.3  2204
    6602.71  27974.5  12465.3  2219
    6603.48  27951.5  12444.3  2193
    6604.26  27947.5  12452.3  2195
    6604.98  27941.5  12456.3  2191
    6605.75  27931.5  12440.3  2174
    6606.52  27926.5  12435.3  2167
    6607.29  27917.5  12433.3  2166
    6608.01  27906.5  12437.3  2173
    6608.78  27901.5  12409.3  2150
    6609.56  27896.5  12405.3  2147
    6610.28  27887.5  12388.3  2133
    6611.05  27872.5  12380.3  2124
    6611.82  27862.5  12376.3  2121
    6612.6  27845.5  12355.3  2100
    6613.32  27840.5  12375.3  2114
    6614.09  27839.5  12364.3  2091
    6614.87  27833.5  12378.3  2098
    6615.59  27823.5  12374.3  2084
    6616.36  27816.5  12384.3  2082
    6617.14  27789.5  12374.3  2063
    6617.86  27787.5  12391.3  2064
    6618.64  27782.5  12407.3  2065
    6619.41  27762.5  12392.3  2038
    6620.14  27764.5  12417.3  2048
    6620.91  27748.5  12410.3  2027
    6621.69  27746.5  12437.3  2041
    6622.41  27737.5  12440.3  2033
    6623.19  27716.5  12428.3  2010
    6623.91  27717.5  12453.3  2021
    6624.69  27695.5  12431.3  1990
    6625.47  27689.5  12449.3  2001
    6626.19  27675.5  12445.3  1983
    6626.97  27670.5  12464.3  1987
    6627.75  27656.5  12468.3  1982
    6628.48  27646.5  12465.3  1973
    6629.25  27643.5  12479.3  1971
    6629.98  27624.5  12473.3  1958