File: data/Mn/Mn3O4_rt_03.xdi
# XDI/1.0
# Column.1: energy eV
# Column.2: i0
# Column.3: itrans
# Column.4: irefer
# Beamline.name: SSRL 4-3
# Detector.I0: N2 15cm
# Detector.I1: N2 30cm
# Detector.I2: N2 15cm
# Element.edge: K
# Element.symbol: Mn
# Mono.d_spacing: 1.92009
# Mono.name: Si(220)
# Mono.notes: unfocused, detuned 10%
# Sample.formula: Mn3O4
# Sample.name: Mn3O4  haussmanite
# Sample.prep: powder, mixed with B(OH)3
# Sample.reference: Mn filter
# Sample.temperature: room temperature
# Scan.start_time: 1995-06-20 04:30:44
# ///
#    Note: mono d_spacing is nominal!
#     217  E XMU I0
#-------------
#   energy   i0   itrans  irefer
    6520  28602.5  21790.3  7306
    6521  28602.5  21814.3  7317
    6522  28591.5  21838.3  7330
    6523  28580.5  21813.3  7294
    6524  28581.5  21817.3  7280
    6525  28567.5  21824.3  7281
    6526  28567.5  21818.3  7259
    6527  28556.5  21818.3  7248
    6528  28542.5  21790.3  7215
    6529  28535.5  21787.3  7205
    6530  28526.5  21792.3  7201
    6531.01  28523.5  21772.3  7168
    6532.01  28510.5  21752.3  7144
    6533.01  28510.5  21739.3  7121
    6534.01  28497.5  21709.3  7091
    6535.02  28485.5  21662.3  7043
    6535.32  28482.5  21637.3  7021
    6535.67  28485.5  21625.3  7007
    6536.02  28477.5  21589.3  6978
    6536.32  28478.5  21584.3  6977
    6536.67  28455.5  21501.3  6911
    6537.02  28452.5  21474.3  6892
    6537.33  28457.5  21453.3  6876
    6537.68  28453.5  21370.3  6814
    6537.98  28455.5  21333.3  6800
    6538.33  28452.5  21188.3  6687
    6538.68  28435.5  21001.3  6568
    6538.98  28448.5  20818.3  6444
    6539.34  28428.5  20508.3  6249
    6539.69  28431.5  20208.3  6064
    6539.99  28435.5  20013.3  5943
    6540.34  28430.5  19868.3  5839
    6540.64  28421.5  19876.3  5837
    6540.99  28421.5  19915.3  5844
    6541.35  28424.5  19935.3  5847
    6541.65  28416.5  19884.3  5812
    6542  28421.5  19775.3  5732
    6542.35  28408.5  19622.3  5622
    6542.65  28416.5  19512.3  5545
    6543.01  28407.5  19304.3  5386
    6543.31  28402.5  19154.3  5276
    6543.66  28406.5  18894.3  5071
    6544.01  28406.5  18638.3  4885
    6544.32  28397.5  18365.3  4703
    6544.67  28395.5  18030.3  4504
    6545.02  28397.5  17670.3  4306
    6545.32  28405.5  17350.3  4152
    6545.68  28396.5  16893.3  3932
    6545.98  28386.5  16501.3  3767
    6546.33  28391.5  16052.3  3606
    6546.68  28388.5  15585.3  3441
    6546.99  28392.5  15245.3  3340
    6547.34  28385.5  14870.3  3225
    6547.69  28373.5  14545.3  3118
    6547.99  28370.5  14338.3  3070
    6548.35  28364.5  14084.3  2977
    6548.65  28354.5  13936.3  2958
    6549  28352.5  13713.3  2881
    6549.35  28352.5  13542.3  2851
    6549.66  28344.5  13377.3  2809
    6550.01  28329.5  13170.3  2750
    6550.31  28327.5  13033.3  2735
    6550.67  28329.5  12849.3  2689
    6551.02  28324.5  12708.3  2676
    6551.32  28331.5  12602.3  2661
    6551.68  28313.5  12470.3  2635
    6551.98  28313.5  12392.3  2622
    6552.33  28318.5  12315.3  2605
    6552.69  28315.5  12259.3  2601
    6552.99  28316.5  12227.3  2607
    6553.34  28306.5  12182.3  2606
    6553.65  28302.5  12128.3  2581
    6554  28300.5  12071.3  2567
    6554.35  28299.5  12005.3  2551
    6554.66  28295.5  11968.3  2553
    6555.01  28295.5  11899.3  2542
    6555.31  28299.5  11847.3  2536
    6555.67  28288.5  11767.3  2525
    6556.02  28293.5  11698.3  2521
    6556.32  28289.5  11638.3  2525
    6556.68  28300.5  11555.3  2518
    6556.98  28300.5  11494.3  2521
    6557.34  28275.5  11389.3  2497
    6557.69  28270.5  11304.3  2478
    6557.99  28276.5  11277.3  2501
    6558.35  28265.5  11214.3  2475
    6558.65  28265.5  11192.3  2472
    6559.01  28255.5  11187.3  2466
    6559.31  28255.5  11210.3  2468
    6559.66  28246.5  11245.3  2459
    6560.02  28249.5  11311.3  2460
    6560.32  28241.5  11386.3  2470
    6560.68  28235.5  11459.3  2454
    6560.98  28234.5  11542.3  2459
    6561.33  28237.5  11641.3  2467
    6561.69  28227.5  11708.3  2447
    6561.99  28230.5  11805.3  2475
    6562.35  28224.5  11869.3  2468
    6562.65  28209.5  11910.3  2457
    6563.01  28213.5  11968.3  2459
    6563.31  28209.5  12004.3  2451
    6563.66  28203.5  12060.3  2462
    6564.02  28188.5  12066.3  2437
    6564.32  28191.5  12113.3  2462
    6564.68  28199.5  12121.3  2445
    6564.98  28199.5  12151.3  2467
    6565.34  28184.5  12118.3  2433
    6565.64  28188.5  12134.3  2453
    6566  28189.5  12103.3  2428
    6566.35  28183.5  12087.3  2425
    6566.66  28174.5  12069.3  2423
    6567.01  28169.5  12026.3  2395
    6567.32  28174.5  12023.3  2406
    6567.67  28165.5  11996.3  2395
    6567.98  28160.5  11993.3  2408
    6568.33  28162.5  11955.3  2377
    6568.69  28157.5  11954.3  2389
    6568.99  28158.5  11948.3  2386
    6569.35  28163.5  11940.3  2375
    6569.65  28159.5  11954.3  2386
    6570.01  28154.5  11946.3  2369
    6570.31  28146.5  11968.3  2382
    6570.67  28144.5  11973.3  2368
    6571.02  28132.5  12006.3  2385
    6571.33  28132.5  12005.3  2360
    6571.69  28119.5  12028.3  2361
    6571.99  28120.5  12046.3  2358
    6572.35  28119.5  12071.3  2356
    6572.65  28116.5  12097.3  2361
    6573.01  28111.5  12119.3  2358
    6573.31  28102.5  12144.3  2367
    6573.67  28098.5  12132.3  2334
    6573.98  28098.5  12174.3  2361
    6574.33  28087.5  12158.3  2328
    6574.69  28079.5  12175.3  2330
    6574.99  28082.5  12198.3  2337
    6575.35  28079.5  12201.3  2324
    6575.65  28082.5  12241.3  2352
    6576.01  28070.5  12218.3  2316
    6576.32  28070.5  12244.3  2328
    6576.67  28075.5  12258.3  2323
    6576.98  28074.5  12283.3  2338
    6577.34  28070.5  12278.3  2314
    6577.69  28056.5  12289.3  2309
    6578  28062.5  12320.3  2322
    6578.35  28067.5  12348.3  2323
    6578.66  28064.5  12370.3  2326
    6579.02  28072.5  12394.3  2320
    6579.32  28067.5  12413.3  2319
    6579.68  28062.5  12432.3  2313
    6579.98  28060.5  12449.3  2309
    6580.75  28051.5  12525.3  2324
    6581.52  28037.5  12562.3  2306
    6582.28  28030.5  12623.3  2314
    6583.05  28027.5  12654.3  2298
    6583.81  28020.5  12688.3  2294
    6584.53  28012.5  12705.3  2291
    6585.29  28009.5  12713.3  2284
    6586.06  28000.5  12719.3  2285
    6586.82  27995.5  12701.3  2272
    6587.59  27987.5  12695.3  2268
    6588.36  27980.5  12667.3  2242
    6589.07  27972.5  12668.3  2245
    6589.84  27974.5  12652.3  2227
    6590.61  27955.5  12647.3  2225
    6591.38  27959.5  12630.3  2207
    6592.15  27948.5  12619.3  2206
    6592.86  27940.5  12598.3  2199
    6593.63  27925.5  12547.3  2173
    6594.4  27923.5  12509.3  2164
    6595.17  27906.5  12457.3  2146
    6595.89  27904.5  12438.3  2152
    6596.65  27892.5  12382.3  2122
    6597.42  27891.5  12375.3  2138
    6598.19  27875.5  12340.3  2119
    6598.96  27861.5  12323.3  2113
    6599.68  27860.5  12308.3  2089
    6600.45  27853.5  12322.3  2095
    6601.22  27848.5  12311.3  2078
    6601.99  27843.5  12317.3  2071
    6602.71  27829.5  12328.3  2076
    6603.48  27818.5  12312.3  2052
    6604.26  27801.5  12316.3  2054
    6604.98  27796.5  12319.3  2051
    6605.75  27785.5  12319.3  2049
    6606.52  27786.5  12305.3  2026
    6607.29  27784.5  12312.3  2038
    6608.01  27758.5  12284.3  2019
    6608.78  27757.5  12283.3  2020
    6609.56  27754.5  12281.3  2017
    6610.28  27751.5  12265.3  2003
    6611.05  27737.5  12266.3  2004
    6611.82  27725.5  12243.3  1980
    6612.6  27724.5  12255.3  1988
    6613.32  27714.5  12247.3  1975
    6614.09  27691.5  12251.3  1978
    6614.87  27680.5  12236.3  1954
    6615.59  27668.5  12248.3  1958
    6616.36  27667.5  12259.3  1953
    6617.14  27656.5  12263.3  1946
    6617.86  27640.5  12270.3  1942
    6618.64  27632.5  12280.3  1938
    6619.41  27624.5  12292.3  1934
    6620.14  27613.5  12291.3  1924
    6620.91  27600.5  12289.3  1910
    6621.69  27591.5  12303.3  1910
    6622.41  27592.5  12323.3  1916
    6623.19  27591.5  12340.3  1920
    6623.91  27578.5  12327.3  1896
    6624.69  27559.5  12329.3  1888
    6625.47  27548.5  12326.3  1878
    6626.19  27538.5  12340.3  1881
    6626.97  27529.5  12339.3  1868
    6627.75  27512.5  12343.3  1863
    6628.48  27492.5  12353.3  1867
    6629.25  27474.5  12328.3  1834
    6629.98  27463.5  12346.3  1844