File: data/Mn/Mn3O4_rt_01.xdi
# XDI/1.0
# Column.1: energy eV
# Column.2: i0
# Column.3: itrans
# Column.4: irefer
# Beamline.name: SSRL 4-3
# Detector.I0: N2 15cm
# Detector.I1: N2 30cm
# Detector.I2: N2 15cm
# Element.edge: K
# Element.symbol: Mn
# Mono.d_spacing: 1.92009
# Mono.name: Si(220)
# Mono.notes: unfocused, detuned 10%
# Sample.formula: Mn3O4
# Sample.name: Mn3O4  haussmanite
# Sample.prep: powder, mixed with B(OH)3
# Sample.reference: Mn filter
# Sample.temperature: room temperature
# Scan.start_time: 1995-06-20 04:30:44
# ///
#    Note: mono d_spacing is nominal!
#     217  E XMU I0
#-------------
#   energy   i0   itrans  irefer
    6520  29050.5  22557.3  8222
    6521  29039.5  22571.3  8223
    6522  29024.5  22566.3  8206
    6523  29015.5  22552.3  8185
    6524  29009.5  22540.3  8155
    6525  29001.5  22541.3  8147
    6526  28990.5  22534.3  8125
    6527  28989.5  22553.3  8134
    6528  28977.5  22539.3  8109
    6529  28968.5  22515.3  8075
    6530  28951.5  22504.3  8055
    6531.01  28943.5  22472.3  8011
    6532.01  28938.5  22476.3  8011
    6533.01  28926.5  22442.3  7969
    6534.01  28907.5  22406.3  7936
    6535.02  28914.5  22372.3  7894
    6535.32  28900.5  22338.3  7864
    6535.67  28899.5  22335.3  7863
    6536.02  28896.5  22303.3  7835
    6536.32  28880.5  22258.3  7802
    6536.67  28898.5  22252.3  7787
    6537.02  28894.5  22223.3  7766
    6537.33  28879.5  22153.3  7711
    6537.68  28882.5  22096.3  7666
    6537.98  28881.5  22022.3  7612
    6538.33  28877.5  21894.3  7520
    6538.68  28868.5  21717.3  7397
    6538.98  28866.5  21520.3  7268
    6539.34  28864.5  21228.3  7081
    6539.69  28862.5  20901.3  6866
    6539.99  28856.5  20707.3  6754
    6540.34  28857.5  20566.3  6646
    6540.64  28847.5  20546.3  6621
    6540.99  28850.5  20603.3  6643
    6541.35  28846.5  20603.3  6626
    6541.65  28840.5  20572.3  6608
    6542  28837.5  20436.3  6499
    6542.35  28829.5  20302.3  6408
    6542.65  28819.5  20156.3  6299
    6543.01  28818.5  19961.3  6142
    6543.31  28827.5  19816.3  6027
    6543.66  28819.5  19565.3  5830
    6544.01  28813.5  19280.3  5618
    6544.32  28808.5  19024.3  5443
    6544.67  28799.5  18672.3  5218
    6545.02  28791.5  18270.3  4976
    6545.32  28786.5  17939.3  4819
    6545.68  28785.5  17494.3  4605
    6545.98  28784.5  17123.3  4462
    6546.33  28780.5  16637.3  4262
    6546.68  28761.5  16150.3  4076
    6546.99  28772.5  15837.3  4002
    6547.34  28759.5  15422.3  3842
    6547.69  28749.5  15102.3  3741
    6547.99  28751.5  14883.3  3677
    6548.35  28746.5  14649.3  3603
    6548.65  28735.5  14466.3  3547
    6549  28727.5  14254.3  3485
    6549.35  28720.5  14065.3  3439
    6549.66  28706.5  13906.3  3408
    6550.01  28713.5  13709.3  3353
    6550.31  28702.5  13552.3  3318
    6550.67  28696.5  13377.3  3282
    6551.02  28701.5  13229.3  3259
    6551.32  28695.5  13123.3  3251
    6551.68  28692.5  12992.3  3221
    6551.98  28687.5  12928.3  3231
    6552.33  28673.5  12807.3  3173
    6552.69  28671.5  12750.3  3164
    6552.99  28670.5  12729.3  3181
    6553.34  28668.5  12659.3  3144
    6553.65  28656.5  12623.3  3145
    6554  28668.5  12572.3  3135
    6554.35  28659.5  12524.3  3136
    6554.66  28660.5  12471.3  3129
    6555.01  28662.5  12402.3  3115
    6555.31  28659.5  12338.3  3099
    6555.67  28656.5  12257.3  3081
    6556.02  28654.5  12189.3  3085
    6556.32  28649.5  12108.3  3062
    6556.68  28646.5  12029.3  3068
    6556.98  28643.5  11960.3  3063
    6557.34  28638.5  11863.3  3038
    6557.69  28632.5  11791.3  3038
    6557.99  28619.5  11725.3  3023
    6558.35  28615.5  11662.3  3000
    6558.65  28612.5  11650.3  3004
    6559.01  28619.5  11662.3  3011
    6559.31  28608.5  11673.3  3005
    6559.66  28608.5  11705.3  2990
    6560.02  28602.5  11775.3  2994
    6560.32  28600.5  11841.3  2993
    6560.68  28595.5  11921.3  2982
    6560.98  28592.5  12005.3  2989
    6561.33  28596.5  12123.3  3012
    6561.69  28580.5  12185.3  2990
    6561.99  28576.5  12262.3  3002
    6562.35  28563.5  12303.3  2970
    6562.65  28558.5  12368.3  2980
    6563.01  28561.5  12424.3  2974
    6563.31  28564.5  12483.3  2988
    6563.66  28559.5  12531.3  2992
    6564.02  28557.5  12550.3  2972
    6564.32  28544.5  12578.3  2983
    6564.68  28541.5  12565.3  2951
    6564.98  28546.5  12590.3  2966
    6565.34  28543.5  12584.3  2957
    6565.64  28543.5  12590.3  2965
    6566  28536.5  12560.3  2947
    6566.35  28538.5  12540.3  2935
    6566.66  28532.5  12528.3  2937
    6567.01  28530.5  12491.3  2913
    6567.32  28529.5  12481.3  2919
    6567.67  28517.5  12431.3  2886
    6567.98  28509.5  12423.3  2891
    6568.33  28505.5  12399.3  2883
    6568.69  28507.5  12390.3  2876
    6568.99  28501.5  12400.3  2893
    6569.35  28497.5  12370.3  2862
    6569.65  28490.5  12371.3  2862
    6570.01  28494.5  12377.3  2859
    6570.31  28492.5  12394.3  2862
    6570.67  28486.5  12410.3  2863
    6571.02  28470.5  12404.3  2835
    6571.33  28458.5  12416.3  2831
    6571.69  28477.5  12460.3  2845
    6571.99  28462.5  12474.3  2836
    6572.35  28473.5  12507.3  2838
    6572.65  28474.5  12528.3  2835
    6573.01  28458.5  12539.3  2828
    6573.31  28452.5  12550.3  2822
    6573.67  28449.5  12572.3  2823
    6573.98  28435.5  12574.3  2813
    6574.33  28440.5  12589.3  2805
    6574.69  28439.5  12606.3  2807
    6574.99  28440.5  12638.3  2820
    6575.35  28428.5  12620.3  2789
    6575.65  28422.5  12634.3  2790
    6576.01  28416.5  12644.3  2786
    6576.32  28407.5  12637.3  2766
    6576.67  28413.5  12663.3  2774
    6576.98  28400.5  12661.3  2761
    6577.34  28405.5  12692.3  2773
    6577.69  28398.5  12698.3  2759
    6578  28403.5  12724.3  2767
    6578.35  28400.5  12739.3  2757
    6578.66  28403.5  12775.3  2772
    6579.02  28396.5  12781.3  2753
    6579.32  28383.5  12788.3  2739
    6579.68  28374.5  12806.3  2731
    6579.98  28377.5  12836.3  2738
    6580.75  28363.5  12885.3  2728
    6581.52  28356.5  12936.3  2720
    6582.28  28345.5  12980.3  2710
    6583.05  28340.5  13021.3  2702
    6583.81  28328.5  13050.3  2696
    6584.53  28327.5  13082.3  2703
    6585.29  28318.5  13073.3  2679
    6586.06  28304.5  13079.3  2681
    6586.82  28300.5  13062.3  2660
    6587.59  28290.5  13051.3  2654
    6588.36  28288.5  13021.3  2627
    6589.07  28282.5  13038.3  2650
    6589.84  28272.5  13005.3  2615
    6590.61  28255.5  12989.3  2604
    6591.38  28255.5  12969.3  2584
    6592.15  28244.5  12943.3  2564
    6592.86  28237.5  12931.3  2569
    6593.63  28222.5  12884.3  2545
    6594.4  28221.5  12853.3  2541
    6595.17  28204.5  12790.3  2511
    6595.89  28198.5  12763.3  2512
    6596.65  28192.5  12712.3  2484
    6597.42  28187.5  12689.3  2481
    6598.19  28175.5  12673.3  2484
    6598.96  28171.5  12646.3  2459
    6599.68  28149.5  12628.3  2442
    6600.45  28153.5  12635.3  2438
    6601.22  28137.5  12629.3  2423
    6601.99  28136.5  12653.3  2433
    6602.71  28126.5  12640.3  2411
    6603.48  28113.5  12641.3  2404
    6604.26  28114.5  12638.3  2390
    6604.98  28108.5  12648.3  2396
    6605.75  28099.5  12643.3  2390
    6606.52  28089.5  12624.3  2366
    6607.29  28083.5  12629.3  2370
    6608.01  28062.5  12609.3  2355
    6608.78  28049.5  12585.3  2340
    6609.56  28040.5  12564.3  2320
    6610.28  28038.5  12570.3  2329
    6611.05  28042.5  12563.3  2315
    6611.82  28034.5  12568.3  2323
    6612.6  28030.5  12559.3  2310
    6613.32  28017.5  12562.3  2310
    6614.09  28000.5  12546.3  2285
    6614.87  27996.5  12552.3  2283
    6615.59  27970.5  12550.3  2277
    6616.36  27966.5  12550.3  2264
    6617.14  27952.5  12561.3  2264
    6617.86  27938.5  12554.3  2243
    6618.64  27940.5  12594.3  2266
    6619.41  27924.5  12578.3  2233
    6620.14  27917.5  12597.3  2242
    6620.91  27920.5  12610.3  2240
    6621.69  27905.5  12605.3  2219
    6622.41  27897.5  12612.3  2216
    6623.19  27884.5  12614.3  2207
    6623.91  27869.5  12612.3  2193
    6624.69  27865.5  12612.3  2178
    6625.47  27846.5  12620.3  2180
    6626.19  27839.5  12623.3  2170
    6626.97  27829.5  12626.3  2158
    6627.75  27812.5  12622.3  2144
    6628.48  27814.5  12646.3  2156
    6629.25  27800.5  12643.3  2146
    6629.98  27779.5  12635.3  2131