File: data/Mn/MnO2_rt_03.xdi
# XDI/1.0
# Column.1: energy eV
# Column.2: i0
# Column.3: itrans
# Column.4: irefer
# Beamline.name: SSRL 4-3
# Detector.I0: N2 15cm
# Detector.I1: N2 30cm
# Detector.I2: N2 15cm
# Element.edge: K
# Element.symbol: Mn
# Mono.d_spacing: 1.92009
# Mono.name: Si(220)
# Mono.notes: unfocused, detuned 10%
# Sample.formula: MnO2-pyr
# Sample.name: MnO2  pyrolusite
# Sample.prep: powder, mixed with B(OH)3
# Sample.reference: Mn filter
# Sample.temperature: room temperature
# Scan.start_time: 1995-06-20 03:12:09
# ///
#    Note: mono d_spacing is nominal!
#     217  E XMU I0
#-------------
#   energy   i0   itrans  irefer
    6520  34121.5  55043.3  39994
    6521  34118.5  55063.3  39980
    6522  34096.5  54999.3  39846
    6523  34111.5  55110.3  39963
    6524  34111.5  55138.3  39945
    6525  34121.5  55187.3  39967
    6526  34121.5  55186.3  39907
    6527  34119.5  55215.3  39898
    6528  34109.5  55201.3  39834
    6529  34114.5  55229.3  39812
    6530  34129.5  55316.3  39878
    6531.01  34121.5  55293.3  39786
    6532.01  34127.5  55361.3  39825
    6533.01  34125.5  55349.3  39752
    6534.01  34123.5  55350.3  39685
    6535.02  34130.5  55379.3  39644
    6535.32  34122.5  55344.3  39569
    6535.67  34139.5  55427.3  39654
    6536.02  34131.5  55390.3  39567
    6536.32  34133.5  55395.3  39541
    6536.67  34132.5  55386.3  39479
    6537.02  34135.5  55397.3  39452
    6537.33  34132.5  55367.3  39374
    6537.68  34122.5  55327.3  39260
    6537.98  34122.5  55300.3  39165
    6538.33  34126.5  55292.3  39048
    6538.68  34127.5  55246.3  38860
    6538.98  34119.5  55153.3  38593
    6539.34  34121.5  55054.3  38285
    6539.69  34121.5  54897.3  37936
    6539.99  34105.5  54686.3  37631
    6540.34  34114.5  54532.3  37555
    6540.64  34095.5  54296.3  37420
    6540.99  34115.5  54215.3  37505
    6541.35  34103.5  53990.3  37342
    6541.65  34108.5  53891.3  37279
    6542  34110.5  53748.3  37097
    6542.35  34121.5  53672.3  36932
    6542.65  34115.5  53613.3  36714
    6543.01  34111.5  53613.3  36443
    6543.31  34116.5  53690.3  36223
    6543.66  34110.5  53739.3  35808
    6544.01  34113.5  53858.3  35466
    6544.32  34111.5  53911.3  35100
    6544.67  34116.5  54015.3  34736
    6545.02  34113.5  54039.3  34277
    6545.32  34133.5  54135.3  33992
    6545.68  34132.5  54170.3  33570
    6545.98  34121.5  54157.3  33187
    6546.33  34131.5  54235.3  32886
    6546.68  34119.5  54176.3  32451
    6546.99  34134.5  54186.3  32197
    6547.34  34139.5  54156.3  31933
    6547.69  34132.5  54071.3  31683
    6547.99  34114.5  53914.3  31410
    6548.35  34116.5  53819.3  31269
    6548.65  34121.5  53721.3  31160
    6549  34051.5  53190.3  30495
    6549.35  34118.5  53361.3  30883
    6549.66  34111.5  53116.3  30690
    6550.01  34131.5  52948.3  30706
    6550.31  34109.5  52604.3  30483
    6550.67  34122.5  52341.3  30481
    6551.02  34122.5  51952.3  30393
    6551.32  34108.5  51538.3  30258
    6551.68  34120.5  51141.3  30287
    6551.98  34114.5  50715.3  30207
    6552.33  34124.5  50272.3  30214
    6552.69  34126.5  49858.3  30192
    6552.99  34124.5  49552.3  30168
    6553.34  34119.5  49244.3  30100
    6553.65  34115.5  49042.3  30039
    6554  34128.5  48932.3  30091
    6554.35  34120.5  48747.3  29998
    6554.66  34125.5  48659.3  30021
    6555.01  34119.5  48466.3  29938
    6555.31  34124.5  48354.3  29956
    6555.67  34130.5  48198.3  29966
    6556.02  34128.5  47984.3  29929
    6556.32  34127.5  47786.3  29880
    6556.68  34134.5  47589.3  29917
    6556.98  34123.5  47352.3  29850
    6557.34  34126.5  47091.3  29825
    6557.69  34136.5  46843.3  29837
    6557.99  34138.5  46614.3  29823
    6558.35  34134.5  46349.3  29807
    6558.65  34131.5  46137.3  29767
    6559.01  34135.5  45990.3  29802
    6559.31  34133.5  45871.3  29787
    6559.66  34138.5  45806.3  29808
    6560.02  34132.5  45752.3  29783
    6560.32  34124.5  45695.3  29715
    6560.68  34140.5  45780.3  29814
    6560.98  34123.5  45717.3  29696
    6561.33  34141.5  45832.3  29821
    6561.69  34130.5  45827.3  29774
    6561.99  34132.5  45862.3  29799
    6562.35  34134.5  45894.3  29814
    6562.65  34127.5  45890.3  29794
    6563.01  34129.5  45909.3  29806
    6563.31  34122.5  45906.3  29781
    6563.66  34134.5  45982.3  29852
    6564.02  34126.5  45973.3  29785
    6564.32  34125.5  45997.3  29764
    6564.68  34130.5  46075.3  29782
    6564.98  34129.5  46133.3  29789
    6565.34  34133.5  46209.3  29790
    6565.64  34122.5  46218.3  29735
    6566  34131.5  46312.3  29772
    6566.35  34127.5  46321.3  29713
    6566.66  34123.5  46330.3  29692
    6567.01  34117.5  46301.3  29610
    6567.32  34128.5  46372.3  29680
    6567.67  34126.5  46366.3  29632
    6567.98  34118.5  46371.3  29611
    6568.33  34124.5  46429.3  29616
    6568.69  34127.5  46493.3  29622
    6568.99  34125.5  46540.3  29621
    6569.35  34117.5  46574.3  29572
    6569.65  34115.5  46630.3  29581
    6570.01  34106.5  46649.3  29514
    6570.31  34112.5  46717.3  29548
    6570.67  34112.5  46762.3  29548
    6571.02  34121.5  46821.3  29578
    6571.33  34109.5  46775.3  29479
    6571.69  34116.5  46849.3  29564
    6571.99  34105.5  46801.3  29481
    6572.35  34118.5  46862.3  29558
    6572.65  34104.5  46780.3  29439
    6573.01  34112.5  46822.3  29508
    6573.31  34113.5  46797.3  29478
    6573.67  34122.5  46822.3  29534
    6573.98  34119.5  46791.3  29522
    6574.33  34118.5  46776.3  29518
    6574.69  34124.5  46786.3  29568
    6574.99  34115.5  46714.3  29481
    6575.35  34126.5  46741.3  29535
    6575.65  34111.5  46660.3  29442
    6576.01  34117.5  46687.3  29490
    6576.32  34093.5  46551.3  29294
    6576.67  34094.5  46609.3  29392
    6576.98  34092.5  46603.3  29387
    6577.34  34099.5  46643.3  29423
    6577.69  34099.5  46660.3  29426
    6578  34089.5  46634.3  29364
    6578.35  34093.5  46681.3  29382
    6578.66  34084.5  46649.3  29297
    6579.02  34098.5  46757.3  29393
    6579.32  34081.5  46728.3  29295
    6579.68  34090.5  46822.3  29358
    6579.98  34082.5  46820.3  29295
    6580.75  34079.5  46957.3  29321
    6581.52  34079.5  47072.3  29330
    6582.28  34068.5  47136.3  29248
    6583.05  34079.5  47326.3  29335
    6583.81  34075.5  47442.3  29298
    6584.53  34070.5  47526.3  29238
    6585.29  34070.5  47647.3  29205
    6586.06  34082.5  47824.3  29273
    6586.82  34072.5  47918.3  29231
    6587.59  34059.5  47956.3  29115
    6588.36  34069.5  48113.3  29180
    6589.07  34061.5  48162.3  29130
    6589.84  34052.5  48185.3  29044
    6590.61  34061.5  48278.3  29079
    6591.38  34058.5  48292.3  29036
    6592.15  34056.5  48295.3  28998
    6592.86  34052.5  48266.3  28934
    6593.63  34048.5  48246.3  28898
    6594.4  34049.5  48254.3  28904
    6595.17  34035.5  48191.3  28808
    6595.89  34033.5  48211.3  28822
    6596.65  34029.5  48192.3  28760
    6597.42  34016.5  48133.3  28643
    6598.19  34033.5  48240.3  28747
    6598.96  34023.5  48237.3  28705
    6599.68  34010.5  48180.3  28560
    6600.45  34024.5  48280.3  28655
    6601.22  34014.5  48249.3  28554
    6601.99  34015.5  48274.3  28562
    6602.71  34017.5  48299.3  28569
    6603.48  34014.5  48289.3  28547
    6604.26  34019.5  48299.3  28551
    6604.98  34008.5  48243.3  28489
    6605.75  34004.5  48223.3  28478
    6606.52  33992.5  48077.3  28287
    6607.29  34002.5  48145.3  28422
    6608.01  33985.5  48059.3  28319
    6608.78  33986.5  48052.3  28334
    6609.56  33990.5  48065.3  28361
    6610.28  33981.5  48003.3  28279
    6611.05  33985.5  48022.3  28308
    6611.82  33976.5  47979.3  28235
    6612.6  33978.5  47973.3  28208
    6613.32  33977.5  47954.3  28193
    6614.09  33977.5  47942.3  28190
    6614.87  33972.5  47908.3  28159
    6615.59  33965.5  47834.3  28082
    6616.36  33966.5  47829.3  28128
    6617.14  33960.5  47755.3  28087
    6617.86  33959.5  47712.3  28081
    6618.64  33952.5  47637.3  28033
    6619.41  33950.5  47604.3  28029
    6620.14  33936.5  47520.3  27920
    6620.91  33937.5  47529.3  27927
    6621.69  33934.5  47541.3  27928
    6622.41  33923.5  47518.3  27850
    6623.19  33929.5  47597.3  27907
    6623.91  33909.5  47547.3  27781
    6624.69  33906.5  47591.3  27791
    6625.47  33894.5  47576.3  27697
    6626.19  33892.5  47615.3  27695
    6626.97  33874.5  47605.3  27626
    6627.75  33875.5  47649.3  27607
    6628.48  33880.5  47722.3  27654
    6629.25  33860.5  47701.3  27563
    6629.98  33861.5  47752.3  27566