File: data/Mn/MnO2_rt_01.xdi
# XDI/1.0
# Column.1: energy eV
# Column.2: i0
# Column.3: itrans
# Column.4: irefer
# Beamline.name: SSRL 4-3
# Detector.I0: N2 15cm
# Detector.I1: N2 30cm
# Detector.I2: N2 15cm
# Element.edge: K
# Element.symbol: Mn
# Mono.d_spacing: 1.92009
# Mono.name: Si(220)
# Mono.notes: unfocused, detuned 10%
# Sample.formula: MnO2-pyr
# Sample.name: MnO2  pyrolusite
# Sample.prep: powder, mixed with B(OH)3
# Sample.reference: Mn filter
# Sample.temperature: room temperature
# Scan.start_time: 1995-06-20 03:12:09
# ///
#    Note: mono d_spacing is nominal!
#     217  E XMU I0
#-------------
#   energy   i0   itrans  irefer
    6520  34266.5  55318.3  42518
    6521  34258.5  55315.3  42458
    6522  34253.5  55315.3  42409
    6523  34260.5  55373.3  42443
    6524  34257.5  55399.3  42435
    6525  34267.5  55443.3  42445
    6526  34267.5  55455.3  42407
    6527  34272.5  55517.3  42451
    6528  34266.5  55541.3  42437
    6529  34266.5  55586.3  42456
    6530  34265.5  55588.3  42399
    6531.01  34269.5  55617.3  42373
    6532.01  34261.5  55617.3  42322
    6533.01  34260.5  55641.3  42297
    6534.01  34260.5  55646.3  42233
    6535.02  34267.5  55657.3  42158
    6535.32  34278.5  55710.3  42209
    6535.67  34268.5  55676.3  42126
    6536.02  34278.5  55715.3  42151
    6536.32  34258.5  55639.3  42009
    6536.67  34273.5  55699.3  42054
    6537.02  34265.5  55662.3  41957
    6537.33  34259.5  55605.3  41819
    6537.68  34270.5  55646.3  41815
    6537.98  34256.5  55563.3  41623
    6538.33  34269.5  55601.3  41587
    6538.68  34269.5  55528.3  41344
    6538.98  34260.5  55434.3  41080
    6539.34  34262.5  55357.3  40796
    6539.69  34256.5  55162.3  40375
    6539.99  34261.5  55016.3  40134
    6540.34  34256.5  54794.3  39959
    6540.64  34263.5  54673.3  39988
    6540.99  34261.5  54508.3  39960
    6541.35  34262.5  54343.3  39879
    6541.65  34265.5  54211.3  39769
    6542  34259.5  54022.3  39516
    6542.35  34267.5  53951.3  39352
    6542.65  34266.5  53890.3  39126
    6543.01  34274.5  53940.3  38917
    6543.31  34265.5  53955.3  38603
    6543.66  34272.5  54080.3  38295
    6544.01  34271.5  54168.3  37889
    6544.32  34261.5  54199.3  37479
    6544.67  34269.5  54319.3  37134
    6545.02  34261.5  54326.3  36632
    6545.32  34269.5  54413.3  36351
    6545.68  34266.5  54448.3  35926
    6545.98  34251.5  54408.3  35487
    6546.33  34265.5  54498.3  35197
    6546.68  34257.5  54469.3  34781
    6546.99  34255.5  54424.3  34454
    6547.34  34258.5  54398.3  34184
    6547.69  34257.5  54322.3  33943
    6547.99  34239.5  54167.3  33657
    6548.35  34265.5  54133.3  33587
    6548.65  34262.5  54001.3  33434
    6549  34253.5  53821.3  33265
    6549.35  34258.5  53638.3  33145
    6549.66  34257.5  53436.3  33015
    6550.01  34253.5  53166.3  32881
    6550.31  34250.5  52902.3  32768
    6550.67  34252.5  52578.3  32691
    6551.02  34250.5  52184.3  32586
    6551.32  34251.5  51844.3  32546
    6551.68  34244.5  51357.3  32446
    6551.98  34241.5  50945.3  32405
    6552.33  34252.5  50516.3  32424
    6552.69  34252.5  50083.3  32387
    6552.99  34254.5  49795.3  32385
    6553.34  34254.5  49490.3  32317
    6553.65  34252.5  49307.3  32287
    6554  34258.5  49162.3  32283
    6554.35  34258.5  49023.3  32262
    6554.66  34255.5  48884.3  32206
    6555.01  34258.5  48738.3  32189
    6555.31  34257.5  48599.3  32163
    6555.67  34266.5  48431.3  32155
    6556.02  34262.5  48214.3  32103
    6556.32  34257.5  48023.3  32081
    6556.68  34264.5  47825.3  32113
    6556.98  34256.5  47584.3  32044
    6557.34  34261.5  47351.3  32066
    6557.69  34259.5  47074.3  32038
    6557.99  34261.5  46851.3  32037
    6558.35  34257.5  46549.3  31957
    6558.65  34253.5  46354.3  31937
    6559.01  34260.5  46195.3  31968
    6559.31  34250.5  46023.3  31867
    6559.66  34268.5  46012.3  31960
    6560.02  34267.5  45968.3  31948
    6560.32  34268.5  45974.3  31971
    6560.68  34265.5  45981.3  31959
    6560.98  34265.5  45992.3  31951
    6561.33  34263.5  46019.3  31947
    6561.69  34256.5  46020.3  31914
    6561.99  34238.5  45999.3  31858
    6562.35  34247.5  46074.3  31942
    6562.65  34238.5  46074.3  31934
    6563.01  34241.5  46098.3  31942
    6563.31  34248.5  46147.3  31996
    6563.66  34243.5  46139.3  31940
    6564.02  34244.5  46191.3  31971
    6564.32  34228.5  46164.3  31863
    6564.68  34238.5  46277.3  31944
    6564.98  34224.5  46258.3  31830
    6565.34  34234.5  46363.3  31879
    6565.64  34235.5  46403.3  31858
    6566  34236.5  46468.3  31866
    6566.35  34237.5  46523.3  31890
    6566.66  34224.5  46478.3  31767
    6567.01  34228.5  46522.3  31801
    6567.32  34224.5  46518.3  31763
    6567.67  34219.5  46530.3  31749
    6567.98  34214.5  46535.3  31719
    6568.33  34218.5  46590.3  31732
    6568.69  34223.5  46654.3  31736
    6568.99  34216.5  46678.3  31699
    6569.35  34220.5  46766.3  31723
    6569.65  34220.5  46812.3  31707
    6570.01  34214.5  46846.3  31650
    6570.31  34220.5  46908.3  31682
    6570.67  34216.5  46938.3  31657
    6571.02  34223.5  47007.3  31703
    6571.33  34211.5  46974.3  31623
    6571.69  34226.5  47056.3  31725
    6571.99  34212.5  46995.3  31613
    6572.35  34220.5  47040.3  31673
    6572.65  34219.5  47027.3  31646
    6573.01  34215.5  47008.3  31621
    6573.31  34224.5  47021.3  31652
    6573.67  34218.5  46972.3  31592
    6573.98  34228.5  46998.3  31659
    6574.33  34225.5  46954.3  31620
    6574.69  34225.5  46935.3  31620
    6574.99  34217.5  46877.3  31547
    6575.35  34226.5  46896.3  31608
    6575.65  34226.5  46886.3  31609
    6576.01  34221.5  46846.3  31543
    6576.32  34226.5  46869.3  31593
    6576.67  34226.5  46864.3  31580
    6576.98  34220.5  46839.3  31537
    6577.34  34220.5  46853.3  31539
    6577.69  34223.5  46851.3  31510
    6578  34223.5  46866.3  31509
    6578.35  34221.5  46888.3  31497
    6578.66  34218.5  46904.3  31483
    6579.02  34227.5  46964.3  31497
    6579.32  34234.5  47038.3  31558
    6579.68  34226.5  47070.3  31527
    6579.98  34218.5  47070.3  31452
    6580.75  34222.5  47222.3  31499
    6581.52  34218.5  47306.3  31451
    6582.28  34224.5  47474.3  31529
    6583.05  34217.5  47572.3  31478
    6583.81  34213.5  47691.3  31450
    6584.53  34219.5  47830.3  31466
    6585.29  34212.5  47919.3  31387
    6586.06  34218.5  48073.3  31413
    6586.82  34208.5  48140.3  31314
    6587.59  34211.5  48282.3  31359
    6588.36  34198.5  48302.3  31213
    6589.07  34204.5  48422.3  31253
    6589.84  34200.5  48469.3  31207
    6590.61  34192.5  48491.3  31139
    6591.38  34192.5  48557.3  31182
    6592.15  34196.5  48556.3  31129
    6592.86  34200.5  48548.3  31092
    6593.63  34205.5  48562.3  31088
    6594.4  34193.5  48510.3  31010
    6595.17  34191.5  48500.3  30987
    6595.89  34178.5  48434.3  30860
    6596.65  34190.5  48500.3  30935
    6597.42  34186.5  48481.3  30863
    6598.19  34189.5  48525.3  30891
    6598.96  34181.5  48519.3  30832
    6599.68  34172.5  48512.3  30762
    6600.45  34172.5  48551.3  30763
    6601.22  34165.5  48545.3  30708
    6601.99  34173.5  48598.3  30748
    6602.71  34157.5  48541.3  30642
    6603.48  34167.5  48590.3  30704
    6604.26  34160.5  48551.3  30634
    6604.98  34161.5  48525.3  30601
    6605.75  34156.5  48489.3  30570
    6606.52  34147.5  48371.3  30420
    6607.29  34159.5  48426.3  30536
    6608.01  34151.5  48388.3  30501
    6608.78  34155.5  48384.3  30515
    6609.56  34150.5  48333.3  30447
    6610.28  34152.5  48335.3  30457
    6611.05  34139.5  48277.3  30363
    6611.82  34139.5  48273.3  30357
    6612.6  34127.5  48208.3  30229
    6613.32  34132.5  48241.3  30313
    6614.09  34129.5  48222.3  30294
    6614.87  34121.5  48163.3  30225
    6615.59  34119.5  48130.3  30212
    6616.36  34118.5  48091.3  30205
    6617.14  34121.5  48062.3  30225
    6617.86  34116.5  47989.3  30181
    6618.64  34101.5  47899.3  30096
    6619.41  34105.5  47865.3  30082
    6620.14  34090.5  47783.3  29974
    6620.91  34106.5  47848.3  30064
    6621.69  34096.5  47822.3  30002
    6622.41  34091.5  47849.3  30006
    6623.19  34074.5  47809.3  29884
    6623.91  34082.5  47891.3  29954
    6624.69  34071.5  47880.3  29869
    6625.47  34070.5  47932.3  29883
    6626.19  34047.5  47887.3  29754
    6626.97  34052.5  47956.3  29788
    6627.75  34047.5  47997.3  29777
    6628.48  34039.5  48004.3  29719
    6629.25  34038.5  48065.3  29744
    6629.98  34020.5  48061.3  29671