File: data/Mn/MnO2_rt_02.xdi
# XDI/1.0
# Column.1: energy eV
# Column.2: i0
# Column.3: itrans
# Column.4: irefer
# Beamline.name: SSRL 4-3
# Detector.I0: N2 15cm
# Detector.I1: N2 30cm
# Detector.I2: N2 15cm
# Element.edge: K
# Element.symbol: Mn
# Mono.d_spacing: 1.92009
# Mono.name: Si(220)
# Mono.notes: unfocused, detuned 10%
# Sample.formula: MnO2-pyr
# Sample.name: MnO2  pyrolusite
# Sample.prep: powder, mixed with B(OH)3
# Sample.reference: Mn filter
# Sample.temperature: room temperature
# Scan.start_time: 1995-06-20 03:12:09
# ///
#    Note: mono d_spacing is nominal!
#     217  E XMU I0
#-------------
#   energy   i0   itrans  irefer
    6520  34186.5  55161.3  41197
    6521  34175.5  55133.3  41117
    6522  34170.5  55142.3  41084
    6523  34169.5  55166.3  41073
    6524  34171.5  55204.3  41080
    6525  34183.5  55262.3  41114
    6526  34183.5  55294.3  41105
    6527  34185.5  55333.3  41115
    6528  34176.5  55312.3  41031
    6529  34188.5  55384.3  41074
    6530  34184.5  55390.3  41027
    6531.01  34183.5  55399.3  40980
    6532.01  34183.5  55436.3  40976
    6533.01  34184.5  55442.3  40913
    6534.01  34187.5  55491.3  40929
    6535.02  34179.5  55459.3  40797
    6535.32  34187.5  55493.3  40818
    6535.67  34192.5  55499.3  40790
    6536.02  34188.5  55467.3  40706
    6536.32  34187.5  55472.3  40680
    6536.67  34186.5  55471.3  40638
    6537.02  34190.5  55503.3  40643
    6537.33  34176.5  55423.3  40485
    6537.68  34189.5  55475.3  40499
    6537.98  34187.5  55431.3  40364
    6538.33  34195.5  55423.3  40258
    6538.68  34191.5  55358.3  40031
    6538.98  34182.5  55259.3  39745
    6539.34  34193.5  55188.3  39474
    6539.69  34192.5  55006.3  39073
    6539.99  34183.5  54815.3  38780
    6540.34  34191.5  54668.3  38723
    6540.64  34187.5  54498.3  38683
    6540.99  34201.5  54376.3  38707
    6541.35  34191.5  54181.3  38587
    6541.65  34192.5  54062.3  38501
    6542  34186.5  53879.3  38272
    6542.35  34195.5  53802.3  38095
    6542.65  34182.5  53704.3  37815
    6543.01  34183.5  53733.3  37584
    6543.31  34182.5  53769.3  37299
    6543.66  34188.5  53880.3  36975
    6544.01  34189.5  53980.3  36608
    6544.32  34187.5  54052.3  36264
    6544.67  34178.5  54102.3  35816
    6545.02  34179.5  54159.3  35388
    6545.32  34185.5  54225.3  35081
    6545.68  34188.5  54264.3  34667
    6545.98  34176.5  54237.3  34238
    6546.33  34194.5  54330.3  33952
    6546.68  34180.5  54267.3  33500
    6546.99  34178.5  54244.3  33219
    6547.34  34179.5  54210.3  32949
    6547.69  34180.5  54150.3  32727
    6547.99  34175.5  54060.3  32541
    6548.35  34174.5  53930.3  32334
    6548.65  34172.5  53797.3  32189
    6549  34176.5  53650.3  32061
    6549.35  34173.5  53458.3  31935
    6549.66  34166.5  53241.3  31790
    6550.01  34162.5  52965.3  31643
    6550.31  34172.5  52753.3  31608
    6550.67  34166.5  52382.3  31458
    6551.02  34176.5  52055.3  31451
    6551.32  34172.5  51674.3  31352
    6551.68  34177.5  51223.3  31317
    6551.98  34163.5  50796.3  31242
    6552.33  34172.5  50349.3  31242
    6552.69  34168.5  49892.3  31161
    6552.99  34163.5  49565.3  31096
    6553.34  34179.5  49336.3  31146
    6553.65  34169.5  49113.3  31051
    6554  34182.5  49014.3  31114
    6554.35  34171.5  48831.3  31030
    6554.66  34174.5  48705.3  30995
    6555.01  34177.5  48566.3  30989
    6555.31  34175.5  48416.3  30951
    6555.67  34183.5  48260.3  30959
    6556.02  34181.5  48052.3  30925
    6556.32  34179.5  47878.3  30922
    6556.68  34177.5  47628.3  30872
    6556.98  34185.5  47460.3  30922
    6557.34  34182.5  47180.3  30868
    6557.69  34179.5  46892.3  30826
    6557.99  34176.5  46651.3  30788
    6558.35  34177.5  46409.3  30799
    6558.65  34176.5  46217.3  30791
    6559.01  34176.5  46017.3  30760
    6559.31  34181.5  45935.3  30788
    6559.66  34183.5  45849.3  30775
    6560.02  34182.5  45811.3  30776
    6560.32  34175.5  45761.3  30709
    6560.68  34183.5  45831.3  30800
    6560.98  34170.5  45817.3  30754
    6561.33  34175.5  45865.3  30786
    6561.69  34171.5  45885.3  30773
    6561.99  34172.5  45903.3  30763
    6562.35  34193.5  45986.3  30848
    6562.65  34176.5  45923.3  30734
    6563.01  34189.5  46013.3  30850
    6563.31  34202.5  46031.3  30835
    6563.66  34196.5  46029.3  30791
    6564.02  34198.5  46077.3  30814
    6564.32  34195.5  46086.3  30772
    6564.68  34202.5  46184.3  30833
    6564.98  34197.5  46164.3  30709
    6565.34  34204.5  46304.3  30816
    6565.64  34199.5  46328.3  30771
    6566  34208.5  46425.3  30828
    6566.35  34201.5  46428.3  30762
    6566.66  34199.5  46426.3  30721
    6567.01  34206.5  46483.3  30756
    6567.32  34190.5  46421.3  30633
    6567.67  34202.5  46491.3  30699
    6567.98  34116.5  46096.3  30076
    6568.33  34191.5  46512.3  30623
    6568.69  34187.5  46542.3  30587
    6568.99  34187.5  46608.3  30603
    6569.35  34160.5  46527.3  30369
    6569.65  34177.5  46675.3  30517
    6570.01  34192.5  46812.3  30622
    6570.31  34184.5  46811.3  30544
    6570.67  34192.5  46888.3  30597
    6571.02  34189.5  46915.3  30584
    6571.33  34179.5  46878.3  30498
    6571.69  34196.5  46977.3  30613
    6571.99  34182.5  46910.3  30501
    6572.35  34202.5  47002.3  30628
    6572.65  34181.5  46905.3  30485
    6573.01  34199.5  46990.3  30621
    6573.31  34190.5  46944.3  30565
    6573.67  34200.5  46972.3  30620
    6573.98  34182.5  46868.3  30484
    6574.33  34192.5  46895.3  30558
    6574.69  34186.5  46841.3  30506
    6574.99  34182.5  46810.3  30485
    6575.35  34185.5  46805.3  30496
    6575.65  34181.5  46771.3  30461
    6576.01  34190.5  46788.3  30496
    6576.32  34188.5  46766.3  30468
    6576.67  34193.5  46787.3  30491
    6576.98  34187.5  46754.3  30437
    6577.34  34188.5  46767.3  30443
    6577.69  34180.5  46742.3  30378
    6578  34190.5  46807.3  30447
    6578.35  34194.5  46834.3  30440
    6578.66  34195.5  46853.3  30427
    6579.02  34196.5  46903.3  30436
    6579.32  34190.5  46917.3  30399
    6579.68  34184.5  46942.3  30364
    6579.98  34195.5  47032.3  30432
    6580.75  34188.5  47136.3  30415
    6581.52  34184.5  47229.3  30376
    6582.28  34189.5  47380.3  30423
    6583.05  34187.5  47500.3  30400
    6583.81  34189.5  47659.3  30434
    6584.53  34173.5  47693.3  30289
    6585.29  34186.5  47886.3  30376
    6586.06  34174.5  47943.3  30257
    6586.82  34171.5  48055.3  30239
    6587.59  34169.5  48166.3  30226
    6588.36  34166.5  48246.3  30183
    6589.07  34181.5  48363.3  30215
    6589.84  34176.5  48404.3  30152
    6590.61  34186.5  48493.3  30178
    6591.38  34181.5  48484.3  30096
    6592.15  34174.5  48490.3  30068
    6592.86  34152.5  48440.3  29997
    6593.63  34159.5  48483.3  30051
    6594.4  34142.5  48390.3  29898
    6595.17  34148.5  48439.3  29964
    6595.89  34143.5  48400.3  29894
    6596.65  34138.5  48387.3  29847
    6597.42  34132.5  48368.3  29778
    6598.19  34124.5  48347.3  29713
    6598.96  34125.5  48378.3  29702
    6599.68  34125.5  48400.3  29679
    6600.45  34119.5  48396.3  29613
    6601.22  34104.5  48407.3  29605
    6601.99  34112.5  48466.3  29649
    6602.71  34100.5  48406.3  29532
    6603.48  34109.5  48459.3  29602
    6604.26  34102.5  48430.3  29556
    6604.98  34088.5  48355.3  29451
    6605.75  34088.5  48339.3  29458
    6606.52  34081.5  48237.3  29331
    6607.29  34088.5  48283.3  29437
    6608.01  34077.5  48226.3  29372
    6608.78  34085.5  48232.3  29396
    6609.56  34082.5  48194.3  29342
    6610.28  34069.5  48127.3  29256
    6611.05  34070.5  48132.3  29260
    6611.82  34066.5  48116.3  29236
    6612.6  34063.5  48099.3  29187
    6613.32  34056.5  48079.3  29185
    6614.09  34056.5  48071.3  29185
    6614.87  34047.5  48023.3  29135
    6615.59  34037.5  47974.3  29106
    6616.36  34030.5  47890.3  29038
    6617.14  34032.5  47859.3  29047
    6617.86  34027.5  47797.3  29022
    6618.64  34025.5  47742.3  28984
    6619.41  34003.5  47665.3  28935
    6620.14  33994.5  47593.3  28844
    6620.91  34002.5  47640.3  28914
    6621.69  33999.5  47618.3  28849
    6622.41  33988.5  47600.3  28779
    6623.19  33994.5  47672.3  28825
    6623.91  33982.5  47652.3  28741
    6624.69  33987.5  47735.3  28800
    6625.47  33976.5  47727.3  28721
    6626.19  33970.5  47740.3  28679
    6626.97  33957.5  47740.3  28607
    6627.75  33962.5  47824.3  28657
    6628.48  33945.5  47817.3  28588
    6629.25  33934.5  47825.3  28538
    6629.98  33933.5  47885.3  28571