File: data/Mn/MnO_rt_02.xdi
# XDI/1.0
# Column.1: energy eV
# Column.2: i0
# Column.3: itrans
# Column.4: irefer
# Beamline.name: SSRL 4-3
# Detector.I0: N2 15cm
# Detector.I1: N2 30cm
# Detector.I2: N2 15cm
# Element.edge: K
# Element.symbol: Mn
# Mono.d_spacing: 1.92009
# Mono.name: Si(220)
# Mono.notes: unfocused, detuned 10%
# Sample.formula: MnO
# Sample.name: MnO
# Sample.prep: powder, mixed with B(OH)3
# Sample.reference: Mn filter
# Sample.temperature: room temperature
# Scan.start_time: 1995-06-20 02:43:21
# ///
#    Note: mono d_spacing is nominal!
#     217  E XMU I0
#-------------
#   energy   i0   itrans  irefer
    6520  30933.5  38654.3  20162
    6521  30932.5  38701.3  20203
    6522  30924.5  38711.3  20195
    6523  30914.5  38688.3  20124
    6524  30910.5  38709.3  20113
    6525  30907.5  38699.3  20049
    6526  30889.5  38672.3  19979
    6527  30882.5  38649.3  19900
    6528  30874.5  38677.3  19917
    6529  30870.5  38650.3  19820
    6530  30857.5  38662.3  19820
    6531.01  30842.5  38625.3  19712
    6532.01  30835.5  38627.3  19673
    6533.01  30829.5  38629.3  19632
    6534.01  30827.5  38617.3  19566
    6535.02  30814.5  38580.3  19463
    6535.32  30803.5  38532.3  19372
    6535.67  30803.5  38540.3  19364
    6536.02  30792.5  38500.3  19282
    6536.32  30792.5  38499.3  19262
    6536.67  30795.5  38480.3  19198
    6537.02  30791.5  38490.3  19190
    6537.33  30782.5  38444.3  19093
    6537.68  30779.5  38415.3  19006
    6537.98  30774.5  38368.3  18884
    6538.33  30771.5  38343.3  18780
    6538.68  30773.5  38315.3  18642
    6538.98  30756.5  38199.3  18354
    6539.34  30761.5  38161.3  18099
    6539.69  30768.5  38110.3  17770
    6539.99  30750.5  38051.3  17519
    6540.34  30761.5  38016.3  17309
    6540.64  30752.5  37995.3  17293
    6540.99  30751.5  37977.3  17321
    6541.35  30745.5  37937.3  17313
    6541.65  30740.5  37882.3  17235
    6542  30747.5  37797.3  17097
    6542.35  30731.5  37610.3  16839
    6542.65  30729.5  37425.3  16595
    6543.01  30714.5  37153.3  16278
    6543.31  30717.5  36916.3  16004
    6543.66  30707.5  36606.3  15642
    6544.01  30699.5  36240.3  15165
    6544.32  30698.5  36011.3  14867
    6544.67  30698.5  35692.3  14358
    6545.02  30694.5  35451.3  13913
    6545.32  30699.5  35290.3  13553
    6545.68  30702.5  35148.3  13160
    6545.98  30693.5  35056.3  12858
    6546.33  30682.5  34927.3  12446
    6546.68  30691.5  34867.3  12124
    6546.99  30665.5  34719.3  11759
    6547.34  30664.5  34652.3  11523
    6547.69  30669.5  34552.3  11285
    6547.99  30655.5  34444.3  11104
    6548.35  30659.5  34347.3  10942
    6548.65  30651.5  34223.3  10776
    6549  30647.5  34105.3  10677
    6549.35  30639.5  33912.3  10478
    6549.66  30638.5  33786.3  10417
    6550.01  30630.5  33575.3  10248
    6550.31  30634.5  33486.3  10240
    6550.67  30625.5  33318.3  10091
    6551.02  30620.5  33206.3  9991
    6551.32  30625.5  33167.3  9950
    6551.68  30620.5  33108.3  9870
    6551.98  30617.5  33093.3  9864
    6552.33  30621.5  33073.3  9843
    6552.69  30615.5  33022.3  9797
    6552.99  30611.5  32964.3  9737
    6553.34  30612.5  32961.3  9797
    6553.65  30613.5  32884.3  9714
    6554  30600.5  32810.3  9662
    6554.35  30604.5  32777.3  9640
    6554.66  30606.5  32803.3  9669
    6555.01  30609.5  32844.3  9642
    6555.31  30599.5  32877.3  9573
    6555.67  30597.5  33007.3  9571
    6556.02  30587.5  33102.3  9479
    6556.32  30589.5  33284.3  9550
    6556.68  30593.5  33438.3  9513
    6556.98  30582.5  33523.3  9429
    6557.34  30574.5  33657.3  9419
    6557.69  30573.5  33788.3  9410
    6557.99  30577.5  33900.3  9436
    6558.35  30558.5  33931.3  9340
    6558.65  30559.5  34006.3  9359
    6559.01  30558.5  34050.3  9331
    6559.31  30564.5  34095.3  9331
    6559.66  30555.5  34130.3  9346
    6560.02  30550.5  34127.3  9304
    6560.32  30545.5  34128.3  9288
    6560.68  30539.5  34150.3  9302
    6560.98  30540.5  34182.3  9325
    6561.33  30564.5  34267.3  9396
    6561.69  30556.5  34235.3  9317
    6561.99  30558.5  34288.3  9380
    6562.35  30550.5  34276.3  9331
    6562.65  30552.5  34308.3  9371
    6563.01  30553.5  34321.3  9371
    6563.31  30549.5  34327.3  9386
    6563.66  30541.5  34299.3  9358
    6564.02  30537.5  34266.3  9315
    6564.32  30538.5  34290.3  9379
    6564.68  30534.5  34227.3  9301
    6564.98  30537.5  34230.3  9336
    6565.34  30537.5  34176.3  9290
    6565.64  30529.5  34133.3  9282
    6566  30520.5  34061.3  9230
    6566.35  30505.5  33978.3  9173
    6566.66  30519.5  33992.3  9240
    6567.01  30508.5  33902.3  9156
    6567.32  30497.5  33851.3  9126
    6567.67  30500.5  33823.3  9107
    6567.98  30491.5  33796.3  9075
    6568.33  30484.5  33790.3  9063
    6568.69  30472.5  33770.3  9001
    6568.99  30470.5  33793.3  9002
    6569.35  30467.5  33826.3  8989
    6569.65  30450.5  33819.3  8937
    6570.01  30459.5  33898.3  8971
    6570.31  30455.5  33964.3  9013
    6570.67  30452.5  33989.3  8964
    6571.02  30446.5  34008.3  8918
    6571.33  30445.5  34086.3  8973
    6571.69  30447.5  34095.3  8903
    6571.99  30439.5  34146.3  8955
    6572.35  30438.5  34149.3  8893
    6572.65  30440.5  34209.3  8945
    6573.01  30435.5  34208.3  8909
    6573.31  30433.5  34212.3  8893
    6573.67  30423.5  34206.3  8872
    6573.98  30419.5  34185.3  8824
    6574.33  30408.5  34186.3  8828
    6574.69  30412.5  34217.3  8856
    6574.99  30395.5  34152.3  8765
    6575.35  30381.5  34145.3  8757
    6575.65  30381.5  34156.3  8760
    6576.01  30379.5  34165.3  8768
    6576.32  30386.5  34171.3  8756
    6576.67  30369.5  34132.3  8692
    6576.98  30376.5  34174.3  8752
    6577.34  30379.5  34174.3  8725
    6577.69  30363.5  34162.3  8706
    6578  30363.5  34165.3  8706
    6578.35  30347.5  34142.3  8673
    6578.66  30340.5  34114.3  8613
    6579.02  30347.5  34168.3  8672
    6579.32  30352.5  34194.3  8686
    6579.68  30354.5  34203.3  8685
    6579.98  30352.5  34212.3  8696
    6580.75  30344.5  34198.3  8672
    6581.52  30332.5  34214.3  8710
    6582.28  30334.5  34173.3  8635
    6583.05  30311.5  34130.3  8610
    6583.81  30309.5  34110.3  8583
    6584.53  30295.5  34086.3  8569
    6585.29  30294.5  34069.3  8537
    6586.06  30294.5  34090.3  8548
    6586.82  30282.5  34068.3  8504
    6587.59  30278.5  34053.3  8471
    6588.36  30261.5  34001.3  8418
    6589.07  30257.5  33951.3  8382
    6589.84  30242.5  33860.3  8325
    6590.61  30245.5  33798.3  8292
    6591.38  30225.5  33710.3  8252
    6592.15  30220.5  33639.3  8199
    6592.86  30218.5  33603.3  8186
    6593.63  30212.5  33556.3  8137
    6594.4  30204.5  33524.3  8096
    6595.17  30187.5  33486.3  8032
    6595.89  30184.5  33475.3  7983
    6596.65  30183.5  33512.3  7985
    6597.42  30167.5  33499.3  7925
    6598.19  30153.5  33488.3  7873
    6598.96  30139.5  33470.3  7799
    6599.68  30136.5  33520.3  7841
    6600.45  30120.5  33507.3  7753
    6601.22  30120.5  33563.3  7747
    6601.99  30112.5  33601.3  7711
    6602.71  30108.5  33668.3  7724
    6603.48  30100.5  33710.3  7695
    6604.26  30086.5  33729.3  7635
    6604.98  30072.5  33778.3  7640
    6605.75  30076.5  33818.3  7597
    6606.52  30063.5  33838.3  7561
    6607.29  30057.5  33894.3  7583
    6608.01  30048.5  33897.3  7533
    6608.78  30036.5  33908.3  7497
    6609.56  30037.5  33926.3  7460
    6610.28  30014.5  33938.3  7453
    6611.05  30010.5  33957.3  7409
    6611.82  30001.5  33983.3  7383
    6612.6  29997.5  34034.3  7387
    6613.32  29995.5  34068.3  7365
    6614.09  29985.5  34110.3  7369
    6614.87  29965.5  34086.3  7285
    6615.59  29953.5  34103.3  7275
    6616.36  29945.5  34105.3  7230
    6617.14  29965.5  34177.3  7274
    6617.86  29951.5  34149.3  7219
    6618.64  29949.5  34156.3  7200
    6619.41  29936.5  34137.3  7178
    6620.14  29931.5  34119.3  7149
    6620.91  29923.5  34102.3  7131
    6621.69  29911.5  34073.3  7097
    6622.41  29898.5  34025.3  7053
    6623.19  29900.5  34039.3  7078
    6623.91  29881.5  33982.3  7000
    6624.69  29857.5  33947.3  6960
    6625.47  29865.5  33977.3  6970
    6626.19  29840.5  33971.3  6963
    6626.97  29830.5  33974.3  6933
    6627.75  29828.5  34006.3  6940
    6628.48  29808.5  33992.3  6901
    6629.25  29801.5  33996.3  6852
    6629.98  29785.5  34005.3  6851