File: data/Mn/MnO_rt_01.xdi
# XDI/1.0
# Column.1: energy eV
# Column.2: i0
# Column.3: itrans
# Column.4: irefer
# Beamline.name: SSRL 4-3
# Detector.I0: N2 15cm
# Detector.I1: N2 30cm
# Detector.I2: N2 15cm
# Element.edge: K
# Element.symbol: Mn
# Mono.d_spacing: 1.92009
# Mono.name: Si(220)
# Mono.notes: unfocused, detuned 10%
# Sample.formula: MnO
# Sample.name: MnO
# Sample.prep: powder, mixed with B(OH)3
# Sample.reference: Mn filter
# Sample.temperature: room temperature
# Scan.start_time: 1995-06-20 02:43:21
# ///
#    Note: mono d_spacing is nominal!
#     217  E XMU I0
#-------------
#   energy   i0   itrans  irefer
    6520  31260.5  39559.3  21749
    6521  31244.5  39558.3  21716
    6522  31237.5  39580.3  21724
    6523  31219.5  39528.3  21592
    6524  31208.5  39531.3  21566
    6525  31201.5  39519.3  21505
    6526  31194.5  39532.3  21493
    6527  31185.5  39519.3  21432
    6528  31175.5  39487.3  21332
    6529  31166.5  39494.3  21299
    6530  31163.5  39482.3  21246
    6531.01  31152.5  39481.3  21203
    6532.01  31148.5  39485.3  21151
    6533.01  31127.5  39419.3  21016
    6534.01  31119.5  39405.3  20951
    6535.02  31124.5  39425.3  20912
    6535.32  31108.5  39384.3  20846
    6535.67  31105.5  39339.3  20731
    6536.02  31108.5  39367.3  20768
    6536.32  31099.5  39332.3  20694
    6536.67  31096.5  39316.3  20633
    6537.02  31094.5  39307.3  20600
    6537.33  31085.5  39276.3  20527
    6537.68  31092.5  39268.3  20455
    6537.98  31081.5  39229.3  20357
    6538.33  31073.5  39174.3  20201
    6538.68  31071.5  39095.3  19970
    6538.98  31060.5  39007.3  19726
    6539.34  31058.5  38930.3  19402
    6539.69  31057.5  38876.3  19079
    6539.99  31049.5  38829.3  18826
    6540.34  31032.5  38746.3  18579
    6540.64  31046.5  38783.3  18638
    6540.99  31034.5  38721.3  18609
    6541.35  31026.5  38696.3  18623
    6541.65  31028.5  38628.3  18514
    6542  31026.5  38517.3  18346
    6542.35  31007.5  38307.3  18042
    6542.65  31021.5  38214.3  17944
    6543.01  31019.5  37954.3  17625
    6543.31  31010.5  37675.3  17274
    6543.66  31011.5  37367.3  16917
    6544.01  31009.5  37013.3  16447
    6544.32  30995.5  36717.3  16039
    6544.67  30997.5  36411.3  15536
    6545.02  30987.5  36166.3  15102
    6545.32  30984.5  36005.3  14758
    6545.68  30979.5  35813.3  14275
    6545.98  30985.5  35766.3  14041
    6546.33  30980.5  35620.3  13563
    6546.68  30970.5  35537.3  13227
    6546.99  30973.5  35453.3  12930
    6547.34  30966.5  35367.3  12672
    6547.69  30948.5  35208.3  12353
    6547.99  30940.5  35101.3  12153
    6548.35  30931.5  35004.3  12025
    6548.65  30933.5  34893.3  11866
    6549  30922.5  34762.3  11749
    6549.35  30922.5  34602.3  11606
    6549.66  30914.5  34462.3  11529
    6550.01  30898.5  34232.3  11328
    6550.31  30903.5  34106.3  11252
    6550.67  30898.5  33960.3  11149
    6551.02  30890.5  33855.3  11053
    6551.32  30895.5  33831.3  11050
    6551.68  30888.5  33750.3  10928
    6551.98  30881.5  33725.3  10913
    6552.33  30869.5  33643.3  10803
    6552.69  30869.5  33639.3  10827
    6552.99  30866.5  33562.3  10737
    6553.34  30874.5  33571.3  10801
    6553.65  30870.5  33485.3  10702
    6554  30867.5  33434.3  10690
    6554.35  30858.5  33389.3  10661
    6554.66  30841.5  33330.3  10556
    6555.01  30839.5  33369.3  10530
    6555.31  30840.5  33420.3  10482
    6555.67  30833.5  33541.3  10474
    6556.02  30834.5  33674.3  10429
    6556.32  30825.5  33806.3  10426
    6556.68  30817.5  33947.3  10388
    6556.98  30816.5  34071.3  10361
    6557.34  30811.5  34214.3  10358
    6557.69  30815.5  34322.3  10299
    6557.99  30802.5  34405.3  10283
    6558.35  30798.5  34468.3  10242
    6558.65  30794.5  34525.3  10229
    6559.01  30791.5  34577.3  10203
    6559.31  30786.5  34674.3  10335
    6559.66  30776.5  34604.3  10152
    6560.02  30774.5  34621.3  10139
    6560.32  30779.5  34652.3  10152
    6560.68  30779.5  34684.3  10167
    6560.98  30775.5  34704.3  10177
    6561.33  30768.5  34717.3  10168
    6561.69  30764.5  34730.3  10162
    6561.99  30759.5  34743.3  10167
    6562.35  30766.5  34770.3  10172
    6562.65  30747.5  34753.3  10144
    6563.01  30753.5  34779.3  10166
    6563.31  30740.5  34748.3  10128
    6563.66  30742.5  34728.3  10089
    6564.02  30749.5  34765.3  10170
    6564.32  30741.5  34738.3  10150
    6564.68  30733.5  34687.3  10097
    6564.98  30736.5  34683.3  10115
    6565.34  30741.5  34632.3  10069
    6565.64  30738.5  34626.3  10122
    6566  30722.5  34519.3  10016
    6566.35  30720.5  34479.3  10017
    6566.66  30722.5  34450.3  10017
    6567.01  30718.5  34377.3  9958
    6567.32  30717.5  34360.3  9974
    6567.67  30709.5  34288.3  9881.01
    6567.98  30696.5  34268.3  9871
    6568.33  30693.5  34249.3  9822
    6568.69  30688.5  34287.3  9853
    6568.99  30683.5  34285.3  9805
    6569.35  30680.5  34327.3  9815
    6569.65  30674.5  34352.3  9793
    6570.01  30678.5  34415.3  9802
    6570.31  30676.5  34462.3  9814
    6570.67  30667.5  34471.3  9740
    6571.02  30663.5  34526.3  9754
    6571.33  30660.5  34563.3  9739
    6571.69  30658.5  34615.3  9756
    6571.99  30657.5  34626.3  9710
    6572.35  30649.5  34663.3  9729
    6572.65  30642.5  34652.3  9675
    6573.01  30643.5  34690.3  9699
    6573.31  30635.5  34674.3  9643
    6573.67  30628.5  34676.3  9637
    6573.98  30631.5  34726.3  9694
    6574.33  30621.5  34680.3  9613.01
    6574.69  30616.5  34688.3  9626
    6574.99  30616.5  34699.3  9630
    6575.35  30603.5  34667.3  9573
    6575.65  30607.5  34718.3  9644
    6576.01  30608.5  34694.3  9585
    6576.32  30600.5  34684.3  9572
    6576.67  30597.5  34665.3  9523
    6576.98  30585.5  34656.3  9520
    6577.34  30591.5  34657.3  9490
    6577.69  30587.5  34668.3  9493
    6578  30578.5  34653.3  9458
    6578.35  30580.5  34683.3  9484
    6578.66  30578.5  34684.3  9471
    6579.02  30561.5  34654.3  9427
    6579.32  30560.5  34670.3  9438
    6579.68  30563.5  34674.3  9421
    6579.98  30553.5  34669.3  9426
    6580.75  30542.5  34638.3  9381
    6581.52  30542.5  34677.3  9448
    6582.28  30536.5  34619.3  9343
    6583.05  30520.5  34590.3  9324
    6583.81  30523.5  34588.3  9325
    6584.53  30523.5  34618.3  9391
    6585.29  30516.5  34579.3  9316
    6586.06  30497.5  34530.3  9228
    6586.82  30494.5  34539.3  9238
    6587.59  30473.5  34460.3  9113
    6588.36  30463.5  34455.3  9140
    6589.07  30470.5  34414.3  9092
    6589.84  30464.5  34342.3  9034
    6590.61  30449.5  34239.3  8960
    6591.38  30434.5  34156.3  8920
    6592.15  30427.5  34081.3  8867
    6592.86  30421.5  34049.3  8878
    6593.63  30411.5  33996.3  8820
    6594.4  30398.5  33925.3  8714
    6595.17  30390.5  33915.3  8694
    6595.89  30369.5  33867.3  8597
    6596.65  30390.5  33948.3  8653
    6597.42  30387.5  33972.3  8636
    6598.19  30365.5  33936.3  8553
    6598.96  30353.5  33920.3  8478
    6599.68  30339.5  33926.3  8444
    6600.45  30322.5  33930.3  8388
    6601.22  30308.5  33947.3  8335
    6601.99  30313.5  34060.3  8413
    6602.71  30301.5  34067.3  8326
    6603.48  30293.5  34121.3  8313
    6604.26  30277.5  34138.3  8253
    6604.98  30267.5  34181.3  8242
    6605.75  30266.5  34210.3  8189
    6606.52  30259.5  34243.3  8165
    6607.29  30245.5  34259.3  8128
    6608.01  30233.5  34285.3  8114
    6608.78  30220.5  34280.3  8054
    6609.56  30229.5  34332.3  8061
    6610.28  30218.5  34363.3  8066
    6611.05  30200.5  34330.3  7960
    6611.82  30195.5  34382.3  7971
    6612.6  30184.5  34400.3  7918
    6613.32  30179.5  34452.3  7941
    6614.09  30176.5  34478.3  7904
    6614.87  30157.5  34483.3  7874
    6615.59  30151.5  34510.3  7871
    6616.36  30132.5  34481.3  7789
    6617.14  30129.5  34527.3  7826
    6617.86  30118.5  34493.3  7745
    6618.64  30121.5  34535.3  7791
    6619.41  30105.5  34482.3  7702
    6620.14  30094.5  34465.3  7683
    6620.91  30086.5  34433.3  7641
    6621.69  30079.5  34421.3  7630
    6622.41  30069.5  34410.3  7628
    6623.19  30060.5  34363.3  7562
    6623.91  30048.5  34350.3  7555
    6624.69  30038.5  34327.3  7512
    6625.47  30013.5  34287.3  7454
    6626.19  30001.5  34292.3  7438
    6626.97  29995.5  34320.3  7450
    6627.75  29982.5  34320.3  7425
    6628.48  29985.5  34362.3  7436
    6629.25  29963.5  34338.3  7367
    6629.98  29945.5  34319.3  7307