File: data/Cu/Cu2S_13K_01.xdi
# XDI/1.0
# Column.1: energy eV
# Column.2: i0
# Column.3: itrans
# Column.4: irefer
# Beamline.name: SSRL 4-3
# Detector.I0: N2 15cm
# Detector.I1: Ar 30cm
# Detector.I2: Ar 15cm
# Element.edge: K
# Element.symbol: Cu
# Mono.d_spacing: 1.92009
# Mono.name: Si(220)
# Mono.notes: unfocused, detuned 50%,higher piezo, at E=9500eV
# Sample.formula: Cu2S
# Sample.name: Cu2S  cuprous sulfide
# Sample.prep: powder, mixed with B(OH)3
# Sample.reference: Cu metal foil (?)
# Sample.temperature: 13K
# Scan.start_time: 1996-07-27 16:01:27
# ///
#    Note: mono d_spacing is nominal!
#     exafs to K15
#     454  E XMU XMUR I0
#-------------
#   energy   i0   itrans  irefer
    8759.99  36329.3  172573  9157.4
    8780  35553.3  172605  9292.4
    8800  34770.3  172486  9422.41
    8820.01  34037.3  172601  9570.4
    8840.02  33254.3  172348  9680.4
    8859.98  32504.3  172162  9824.39
    8879.98  31738.3  171755  9943.4
    8899.98  31014.3  171435  10051.4
    8919.98  30294.3  170975  10173.4
    8939.98  29598.3  170386  10265.4
    8960.02  28840.3  168707  10234.4
    8961.49  28799.3  168440  10225.4
    8963.01  28706.3  168004  10195.4
    8964.53  28693.3  167954  10185.4
    8966.05  28629.3  167635  10156.4
    8967.57  28687.3  167871  10152.4
    8969.09  28631.3  167378  10109.4
    8970.61  28530.3  166549  10022.4
    8972.14  28438.3  165538  9911.4
    8973.66  28387.3  164567  9800.4
    8975.13  28331.3  162978  9558.4
    8976.65  28292.3  160286  9108.4
    8978.18  28198.3  153777  7830.4
    8979.7  28190.3  134485  5053.4
    8981.23  28120.3  102847  3327.4
    8982.7  28026.3  91256.5  3067.4
    8984.23  27944.3  81692.5  2802.4
    8985.76  27902.3  73587.5  2445.4
    8987.29  27854.3  69979.5  2210.4
    8988.76  27781.3  65855.5  1946.4
    8990.29  27757.3  63626.5  1704.4
    8991.82  27690.3  63059.5  1535.4
    8993.35  27611.3  62835.5  1451.4
    8994.83  27537.3  62767.5  1453.4
    8996.36  27503.3  61703.5  1490.4
    8997.9  27423.3  60138.5  1514.4
    8999.38  27385.3  59423.5  1506.4
    9000.91  27324.3  59048.5  1451.4
    9002.44  27288.3  59201.5  1398.4
    9003.93  27213.3  59649.5  1401.4
    9005.46  27147.3  59971.5  1441.4
    9006.94  27123.3  60075.5  1482.4
    9008.48  27041.3  59961.5  1512.4
    9010.02  26974.3  59888.5  1541.4
    9011.09  26946.3  59944.5  1552.38
    9012.22  26919.2  60062.3  1556.34
    9013.4  26870.2  60194.1  1550.26
    9014.58  26868.1  60490.7  1543.15
    9015.86  26838  60869.3  1535.02
    9017.14  26818.8  61369.7  1518.85
    9018.42  26784.7  61911.1  1500.65
    9019.81  26768.5  62559.4  1480.42
    9021.2  26728.3  63133.6  1463.16
    9022.63  26700  63638.6  1444.86
    9024.12  26664.7  63962.6  1429.54
    9025.61  26679.4  64166.5  1424.19
    9027.21  26662.1  64098.3  1430.8
    9028.75  26656.8  63885.9  1454.39
    9030.4  26620.4  63464.5  1476.94
    9032.05  26572  62920  1498.47
    9033.8  26584.6  62416.4  1520.96
    9035.5  26562.1  61858.7  1529.42
    9037.3  26468.7  61171.9  1523.85
    9039.1  26147.2  60011  1509.26
    9040.96  26581.6  60563  1507.63
    9042.87  26543.1  60014.9  1499.97
    9044.83  26713.5  60027.7  1502.27
    9046.79  26703.9  59714.4  1502.55
    9048.81  26673.3  59460  1493.8
    9050.83  26686.6  59403.6  1482.02
    9052.95  26632.9  59300  1482.2
    9055.07  26653.2  59448.3  1480.36
    9057.24  26671.5  59704.5  1476.48
    9059.42  26685.7  60110.6  1469.58
    9061.65  26698.9  60713.7  1469.64
    9063.93  26696.1  61424.6  1465.67
    9066.27  26715.3  62292.4  1467.67
    9068.6  26751.4  63218.2  1468.64
    9071.04  26731.5  63974.8  1455.58
    9073.43  26739.6  64710.3  1468.49
    9075.93  26769.7  65417.8  1493.37
    9078.43  26797.7  65987.1  1532.22
    9080.98  26813.7  66400.4  1561.04
    9083.58  26818.7  66609.5  1586.82
    9086.19  26852.7  66733.6  1611.58
    9088.85  26904.6  66745.5  1625.3
    9091.57  26894.5  66523.4  1634
    9094.28  26938.4  66384.1  1662.66
    9097.05  26813.2  65803.8  1666.3
    9099.88  26839.1  65602.4  1675.9
    9102.75  26820.9  65268.8  1665.47
    9105.64  26883.6  65169.2  1645.01
    9108.57  26908.4  65074.5  1623.52
    9111.56  26951.1  65155.7  1613
    9114.55  26949.8  65278.7  1607.45
    9117.6  26963.5  65558.7  1615.87
    9120.7  26972.1  65910.6  1622.25
    9123.8  26986.8  66358.4  1598.61
    9126.96  27038.4  66957.1  1571.94
    9130.17  27047.9  67522.7  1553.23
    9133.39  27123.5  68276.2  1562.5
    9136.71  27110  68819.6  1580.73
    9139.98  27131.5  69435.9  1610.93
    9143.36  27065  69791.1  1639.11
    9146.75  26931.4  69966.2  1689.25
    9150.19  27355.8  71401.2  1760.36
    9153.63  27382.2  71775.1  1818.44
    9157.13  27371.6  71992.9  1877.49
    9160.68  27389.9  72157.6  1889.5
    9164.29  27758.2  73255.2  1882.49
    9167.9  27740.5  73308.7  1844.45
    9171.57  27741.8  73431.1  1813.38
    9175.25  27754  73574.5  1802.27
    9178.98  27808.2  73879.7  1806.14
    9182.76  27830.4  74172.8  1818.97
    9186.6  27821.6  74412.9  1831.78
    9190.45  27863.7  74825.8  1847.55
    9194.35  27865.8  75174.6  1867.29
    9198.26  27918.9  75703.4  1878
    9202.22  27966  76227  1871.68
    9206.24  27916  76535.6  1842.33
    9210.27  27979  77145  1843.95
    9214.35  28017  77679.3  1861.54
    9218.49  28065.9  78220.6  1888.1
    9222.63  28085.9  78661.7  1918.62
    9226.83  28073.8  79023.8  1969.12
    9231.04  28104.6  79543.8  2015.59
    9235.36  28121.5  80054.7  2065.02
    9239.63  28175.3  80639.4  2091.42
    9244.01  28152.1  81006.1  2095.8
    9248.39  28209.9  81578.6  2107.14
    9252.83  28218.6  82005.1  2119.45
    9257.28  28269.3  82573.4  2132.73
    9261.79  28268  83026.8  2135.99
    9266.35  28277.7  83509  2136.21
    9270.93  28276.4  83964  2140.39
    9275.5  28295  84448  2147.55
    9280.19  28345.6  85060.9  2160.68
    9284.89  28300.1  85388.7  2169.78
    9289.64  28356.7  86003.4  2178.84
    9294.4  28367.2  86440  2195.88
    9299.22  28370.7  86848.4  2210.88
    9304.05  28365.2  87235.8  2230.86
    9308.93  28352.6  87626.1  2260.8
    9313.88  28347  88061.4  2295.71
    9318.83  28393.4  88670.5  2336.6
    9323.84  28361.8  89040.5  2348.45
    9328.86  28392.1  89644.4  2366.27
    9333.94  28434.4  90343.2  2399.06
    9339.08  28547.7  91274.9  2443.82
    9344.23  28552.9  91880.5  2474.54
    9349.43  28554.2  92484  2492.24
    9354.65  28427.4  92685.5  2501.91
    9359.92  28429.6  93287.8  2516.55
    9365.2  28399.7  93771  2532.15
    9370.55  28374.8  94264.2  2552.73
    9375.95  28382.9  94876.2  2564.27
    9381.37  28361  95367.1  2576.78
    9386.84  28393.1  96021  2595.26
    9392.33  28346.1  96421.7  2607.72
    9397.87  28311.1  96858.4  2631.14
    9403.48  28371.1  97620.9  2660.53
    9409.09  28308  97944.4  2687.89
    9414.72  28278  98365.7  2731.22
    9420.4  28253.9  98817  2763.52
    9426.15  28217.7  99250.1  2787.79
    9431.91  28211.6  99808.2  2804.02
    9437.73  28158.4  100184  2821.23
    9443.56  28147.2  100747  2834.4
    9449.46  28132  101344  2866.55
    9455.36  28081.7  101814  2891.66
    9461.32  28043.4  102290  2868.74
    9467.35  27988.1  102884  2957.8
    9473.4  27924.8  103355  2971.82
    9479.44  27908.4  103987  2991.81
    9485.56  27862  104550  3015.77
    9491.73  27820.6  105079  3032.7
    9497.92  27776.2  105600  3049.6
    9504.12  27751.7  106170  3078.47
    9510.38  27750.2  106831  3105.31
    9516.71  27672.7  107211  3132.11
    9523.05  27578.2  107526  3164.89
    9529.45  27342.6  107286  3192.63
    9535.86  27485  108499  3236.34
    9542.28  27436.4  108992  3264.03
    9548.83  27353.8  109368  3291.68
    9555.33  27254.1  109679  3317.31
    9561.9  27186.4  110101  3349.9
    9568.53  27144.7  110639  3383.46
    9575.18  27047.9  110947  3413.99
    9581.89  26995.2  111461  3444.49
    9588.61  26930.4  111941  3475.96
    9595.34  26897.5  112589  3504.4
    9602.15  26795.7  112964  3537.8
    9609.02  26724.8  113497  3568.18
    9615.9  26645.9  113966  3588.53
    9622.79  26632  114703  3626.84
    9629.75  26571  115232  3665.13
    9636.78  26490.1  115674  3700.38
    9643.82  26430.1  116212  3728.61
    9650.88  26312  116479  3773.79
    9658  26281  117073  3814.96
    9665.13  26165.9  117234  3848.09
    9672.34  26092.8  117747  3887.19
    9679.55  26014.7  118192  3928.26
    9686.78  25943.5  118705  3959.3
    9694.08  25853.3  119121  3979.31
    9701.45  25775.1  119553  4023.28
    9708.83  25739.9  120211  4058.23
    9716.23  25687.6  120763  4100.14
    9723.7  25605.3  121260  4130.03
    9731.17  25528  121714  4170.88
    9738.73  25419.7  122048  4205.71
    9746.29  25308.3  122387  4233.5
    9753.93  25226.9  122883  4274.26
    9761.58  25153.5  123405  4307
    9769.24  25079.1  123895  4344.7
    9776.98  25014.6  124482  4388.37
    9784.73  24936.1  124935  4437
    9792.55  24838.6  125343  4468.61
    9800.39  24718.1  125690  4506.19
    9808.24  24685.5  126398  4558.74
    9816.17  24590.9  126803  4595.26
    9824.1  24616.3  127836  4656.74
    9832.12  24439.6  127839  4684.2
    9840.15  24377  128407  4722.62
    9848.19  24333.3  129060  4777.02
    9852.28  24269.9  129223  4799.2