File: data/Cu/Cu_azurite_13K_01.xdi
# XDI/1.0
# Column.1: energy eV
# Column.2: i0
# Column.3: itrans
# Column.4: irefer
# Beamline.name: SSRL 4-3
# Detector.I0: N2 15cm
# Detector.I1: Ar 30cm
# Detector.I2: Ar 15cm
# Element.edge: K
# Element.symbol: Cu
# Mono.d_spacing: 1.92009
# Mono.name: Si(220)
# Mono.notes: unfocused, detuned 50%,higher piezo, at E=9010eV
# Sample.formula: Cu3OH_2CO3_2
# Sample.name: Cu3(CO3)2(OH)2  azurite
# Sample.prep: powder, mixed with B(OH)3
# Sample.reference: Cu metal foil (?)
# Sample.temperature: 13K
# Scan.start_time: 1996-07-25 16:43:38
# ///
#    Note: mono d_spacing is nominal!
#     exafs to K15
#     432  E XMU XMUR I0
#-------------
#   energy   i0   itrans  irefer
    8759.98  25833.9  18256.2  8669.8
    8779.99  25164.9  18132.2  8757.8
    8800  24499.9  18013.2  8838.8
    8820  23837.9  17878.2  8925.8
    8840.01  23266.9  17787.2  9028.8
    8860.02  22649.9  17653.2  9116.8
    8879.98  22021.9  17489.2  9180.8
    8899.98  21415.9  17333.2  9233.8
    8919.98  20862.9  17191.2  9303.8
    8940.02  20077.9  16833.2  9236.8
    8960.02  19479.9  16535.2  9154.8
    8960.98  19431.9  16501.2  9131.8
    8961.99  19350.9  16433.2  9102.8
    8963  19241.9  16353.2  9064.8
    8964.02  19235.9  16340.2  9056.8
    8964.98  19141.9  16268.2  8998.8
    8965.99  19129.9  16254.2  8983.8
    8967.01  19146.9  16268.2  8984.8
    8968.02  19042.9  16181.2  8911.8
    8968.98  18983.9  16120.2  8856.8
    8970  18953.9  16080.2  8832.8
    8971.01  18875.9  16007.2  8769.8
    8971.98  18840.9  15959.2  8714.8
    8972.99  18770.9  15873.2  8633.8
    8974.01  18755.9  15828.2  8554.8
    8975.02  18694.9  15726.2  8412.8
    8975.99  18691.9  15638.2  8226.8
    8977  18655.9  15429.2  7855.8
    8978.02  18601.9  15272.2  7123.8
    8978.99  18562.9  15219.2  5856.8
    8980  18545.9  15128.2  4609.8
    8981.02  18499.9  14883.2  3945.8
    8981.99  18472.9  14508.2  3790.8
    8983  18414.9  13821.2  3692.8
    8984.02  18392.9  12523.2  3346.8
    8984.99  18353.9  10373.2  2749.8
    8986.01  18298.9  8021.2  2138.8
    8986.98  18260.9  6671.2  1776.8
    8987.99  18262.9  6058.2  1561.8
    8989.01  18211.9  5656.2  1385.8
    8989.98  18162.9  5093.2  1209.8
    8991  18152.9  4220.2  1027.8
    8992.02  18112.9  3274.2   877.8
    8992.99  18108.9  2660.2   796.8
    8994.01  18040.9  2347.2   761.8
    8994.98  18038.9  2239.2   757.8
    8996  18006.9  2165.2   762.8
    8997.02  17942.9  2065.2   758.8
    8997.99  17954.9  1985.2   758.8
    8999.01  17926.9  1951.2   756.8
    8999.98  17909.9  2024.2   753.8
    9001.01  17860.9  2180.2   758.8
    9001.98  17847.9  2377.2   764.8
    9003  17801.9  2551.2   767.8
    9004.02  17772.9  2694.2   783.799
    9004.99  17751.9  2798.2   802.8
    9006.02  17716.9  2898.2   825.8
    9006.99  17687.9  2995.2   843.8
    9008.01  17676.9  3100.2   861.8
    9008.99  17636.9  3156.2   876.8
    9010.01  17607.9  3204.2   891.8
    9011.08  17577.9  3230.14   898.78
    9012.21  17591.8  3256.94   901.718
    9013.39  17536.7  3269.62   896.615
    9014.57  17489.6  3299.17   898.47
    9015.85  17487.5  3359.6   899.285
    9017.14  17439.3  3420.89   891.057
    9018.42  17433.1  3507.06   886.79
    9019.8  17415.8  3606.09   884.481
    9021.19  17408.5  3708   882.13
    9022.63  17388.2  3802.78   880.739
    9024.12  17394.8  3883.43   876.306
    9025.61  17370.5  3931.96   878.831
    9027.15  17377  3955.36   883.317
    9028.74  17376.6  3925.62   897.76
    9030.39  17363.1  3847.76   906.162
    9032.04  17380.6  3727.77   912.523
    9033.74  17362  3581.65   909.843
    9035.49  17344.4  3427.41   903.122
    9037.24  17305.8  3279.04   894.359
    9039.05  17050.1  3104.53   876.555
    9040.9  17465.4  3093.9   869.709
    9042.81  17481.7  3044.14   867.823
    9044.77  17516.9  3011.25   864.896
    9046.74  17483.1  2977.24   863.928
    9048.75  17493.3  2965.09   860.918
    9050.77  17501.4  2977.82   857.866
    9052.84  17501.5  3002.42   860.774
    9054.96  17560.6  3046.89   867.64
    9057.13  17544.6  3080.24   867.465
    9059.36  17585.6  3127.45   871.249
    9061.59  17603.6  3155.53   870.992
    9063.87  17604.5  3162.49   869.693
    9066.16  17659.4  3167.32   868.354
    9068.54  17662.3  3170.02   862.974
    9070.93  17693.1  3190.59   858.55
    9073.32  17707.9  3225.04   865.087
    9075.82  17744.7  3289.36   883.583
    9078.32  17760.4  3359.54   902.035
    9080.87  17832.1  3459.6   928.449
    9083.42  17852.8  3547.53   945.821
    9086.08  17899.4  3625.33   969.151
    9088.69  17935  3677.01   976.442
    9091.4  17963.5  3713.55   994.689
    9094.12  18041.1  3730.97  1010.9
    9096.94  18032.5  3710.26  1019.06
    9099.71  18047  3695.42  1025.19
    9102.59  18101.4  3679.45  1022.27
    9105.47  18118.8  3661.36  1009.31
    9108.41  18202.2  3652.13   998.311
    9111.34  18264.5  3660.78   994.27
    9114.33  18244.8  3655.3   993.189
    9117.38  18298  3668.69  1001.07
    9120.48  18364.2  3696.95  1005.9
    9123.58  18374.4  3701.09   995.695
    9126.74  18451.6  3710.09   984.448
    9129.95  18470.7  3706.97   971.161
    9133.17  18527.8  3714.72   971.832
    9136.44  18535.8  3724.34   981.463
    9139.76  18602.8  3741.83   995.05
    9143.09  18575.8  3745.2  1013.6
    9146.48  18614.8  3769.43  1039.1
    9149.92  18867.7  3831.54  1077.57
    9153.36  18905.6  3856.52  1109.99
    9156.85  18810.4  3851.37  1135.37
    9160.41  18892.2  3894.09  1146.71
    9163.97  19159  3969.69  1155.02
    9167.58  19119.7  4003.15  1137.27
    9171.25  19157.5  4052.49  1125.49
    9174.92  19197.1  4110.69  1127.67
    9178.65  19247.8  4170.78  1133.8
    9182.44  19289.4  4226.73  1149.9
    9186.22  19353  4287.55  1162.95
    9190.07  19434.5  4333.25  1177.96
    9193.97  19482  4356.81  1185.93
    9197.88  19548.5  4391.26  1200.86
    9201.84  19596.9  4416.56  1201.75
    9205.86  19637.3  4437.75  1187.59
    9209.89  19721.7  4454.8  1190.4
    9213.97  19772  4452.73  1198.16
    9218.05  19780.3  4454.52  1208.88
    9222.2  19852.6  4501.19  1227.57
    9226.4  19931.8  4556.73  1264.21
    9230.6  19967  4584.14  1287.8
    9234.86  19851.2  4579.43  1302.36
    9239.19  19920.3  4621.59  1322.88
    9243.51  19930.4  4667.61  1336.36
    9247.9  19983.5  4707.51  1342.79
    9252.34  20033.5  4724.28  1355.18
    9256.79  20092.5  4738.92  1357.53
    9261.29  20151.5  4755.44  1361.84
    9265.81  20154.4  4768.82  1362.11
    9270.38  20224.3  4815.08  1369.34
    9275.01  20250.2  4869.21  1386.53
    9279.64  20326  4966.21  1401.67
    9284.33  20361.8  5039.08  1410.78
    9289.03  20425.6  5077.83  1422.84
    9293.79  20458.3  5107.44  1430.86
    9298.61  20499  5123.93  1446.84
    9303.44  20587.6  5179.29  1469.78
    9308.32  20591.3  5240.52  1492.68
    9313.21  20657.8  5324.62  1519.54
    9318.16  20702.4  5412.6  1545.35
    9323.17  20769.9  5460.44  1561.13
    9328.19  20777.4  5478.16  1570.86
    9333.27  20826.9  5499.75  1589.55
    9338.35  20890.3  5534.21  1620.2
    9343.5  20956.7  5566.54  1640.81
    9348.7  21047  5615.75  1656.38
    9353.92  21148.3  5643.82  1664.91
    9359.19  21245.6  5690.77  1686.4
    9364.48  21313.9  5743.59  1695.84
    9369.82  21408.1  5828.28  1719.25
    9375.17  21527.3  5920.84  1744.61
    9380.58  21911.4  6087.27  1791.93
    9386.05  21977.5  6155.58  1809.21
    9391.53  22003.6  6194.75  1823.45
    9397.08  22090.7  6248.8  1842.64
    9402.63  22110.7  6294.73  1864.8
    9408.25  22148.7  6357.51  1887.91
    9413.87  22224.6  6416.18  1922.99
    9419.55  22211.5  6439.72  1944.02
    9425.25  22246.4  6514.12  1958.01
    9431  22284.2  6570.4  1984.96
    9436.82  22300.1  6607.55  2003.87
    9442.65  22356.8  6675.57  2016.74
    9448.49  22364.6  6720.47  2036.57
    9454.44  22375.3  6763.23  2052.35
    9460.35  22412  6825.87  2055.09
    9466.38  22429.6  6900.38  2118.8
    9472.36  22452.2  6975.76  2130.46
    9478.47  22504.8  7034.01  2158.08
    9484.52  22520.3  7093.14  2178.66
    9490.7  22542.8  7161.13  2201.2
    9496.83  22573.3  7205.99  2211.69
    9503.08  22599.7  7252.74  2239.15
    9509.34  22604.1  7298.34  2258.56
    9515.61  22644.5  7345.83  2278.94
    9521.94  22622.8  7377.18  2310.27
    9528.29  22616.1  7404.41  2325.56
    9534.7  22693.4  7478.51  2363.81
    9541.18  22740.6  7541.47  2387.01
    9547.67  22756.8  7611.32  2417.18
    9554.16  22757  7674.03  2442.31
    9560.73  22771.1  7744.61  2472.39
    9567.3  22802.2  7821.07  2500.44
    9573.94  22800.3  7880.4  2528.44
    9580.6  22823.3  7938.59  2555.4
    9587.32  22832.3  8007.66  2575.32
    9594.11  22831.3  8081.6  2610.2
    9600.85  22822.2  8138.42  2635.03
    9607.72  22841.1  8199.1  2671.83
    9614.54  22872  8270.66  2699.58
    9621.49  22877.8  8318.09  2726.3
    9628.39  22877.6  8363.39  2748.97
    9635.41  22897.3  8437.56  2782.6
    9638.9  22900.7  8470.6  2800.4