File: data/Cu/CuO_tenorite_13K_01.xdi
# XDI/1.0
# Column.1: energy eV
# Column.2: i0
# Column.3: itrans
# Column.4: irefer
# Beamline.name: SSRL 4-3
# Detector.I0: N2 15cm
# Detector.I1: Ar 30cm
# Detector.I2: Ar 15cm
# Element.edge: K
# Element.symbol: Cu
# Mono.d_spacing: 1.92009
# Mono.name: Si(220)
# Mono.notes: unfocused, detuned 50%,higher piezo, at E=9200eV
# Sample.formula: CuO
# Sample.name: CuO  copper oxide   tenorite
# Sample.prep: powder, mixed with B(OH)3
# Sample.reference: Cu metal foil (?)
# Sample.temperature: 13K
# Scan.start_time: 1996-07-30 09:34:32
# ///
#    Note: mono d_spacing is nominal!
#     exafs to K13
#     398  E XMU XMUR I0
#-------------
#   energy   i0   itrans  irefer
    8760.02  46739.3  214243  15327.4
    8779.98  45826.3  214412  15593.4
    8799.98  44898.3  214962  15821.4
    8819.99  44000.3  215435  16064.4
    8840  43108.3  216053  16296.4
    8860.01  42182.3  216643  16524.4
    8880.01  41320.3  217196  16732.4
    8900.01  40448.3  218340  16979.4
    8920.02  39598.3  219255  17138.4
    8940.01  38714.3  219104  17301.4
    8960  37869.3  219007  17178.4
    8961.52  37748.3  219227  17149.4
    8963.04  37645.3  219059  17107.4
    8964.56  37574.3  218483  17040.4
    8966.08  37570.3  218732  17028.4
    8967.6  37615.3  218711  16998.4
    8969.07  37465.3  218014  16856.4
    8970.59  37425.3  218944  16738.4
    8972.12  37320.3  218370  16546.4
    8973.64  37238.3  217886  16306.4
    8975.16  37154.3  218215  15850.4
    8976.69  37112.3  217631  14899.4
    8978.16  37010.3  217174  12466.4
    8979.68  36947.3  216770  8514.41
    8981.21  36851.3  216213  6684.4
    8982.74  36836.3  193765  5760.4
    8984.26  36702.3  133366  4126.4
    8985.74  36638.3  106454  3256.4
    8987.27  36596.3  103208  2950.4
    8988.8  36544.3  86589.4  2406.4
    8990.32  36426.3  63386.4  1857.4
    8991.8  36358.3  45690.4  1536.4
    8993.33  36309.3  37408.4  1413.4
    8994.86  36238.3  33037.4  1381.4
    8996.34  36175.3  28860.4  1361.4
    8997.88  36091.3  27198.4  1352.4
    8999.41  35999.3  28675.4  1362.4
    9000.89  35969.3  31538.4  1363.4
    9002.42  35884.3  36009.4  1377.4
    9003.96  35853.3  39831.4  1415.4
    9005.44  35790.3  42572.4  1467.4
    9006.98  35738.3  44675.4  1509.4
    9008.46  35662.3  45019.4  1537.4
    9010  35566.3  44139.4  1542.4
    9011.07  35533.3  43618.4  1541.39
    9012.2  35467.3  43380.3  1535.36
    9013.38  35447.2  43548.1  1536.3
    9014.61  35396.2  43847.9  1528.23
    9015.84  35341.1  44233.6  1523.13
    9017.12  35300  44776.2  1512.01
    9018.45  35248.9  45822.8  1501.87
    9019.79  35220.7  47555.3  1501.71
    9021.18  35200.6  49872.7  1505.52
    9022.61  35153.4  52176  1511.32
    9024.1  35093.2  53933.3  1510.09
    9025.59  35058  55202.6  1514.84
    9027.14  34978.8  55907.7  1526.57
    9028.73  35007.6  55809.8  1548.28
    9030.38  35010.3  54659.9  1565.97
    9032.02  34969  52821.8  1573.63
    9033.72  34871.8  50623.7  1566.27
    9035.48  34846.4  48519.5  1551.89
    9037.28  34783.1  46361.3  1535.49
    9039.08  34217.8  43605  1508.07
    9040.94  34899.4  42583.6  1491.63
    9042.8  34838  41274.2  1478.16
    9044.76  34924.6  40480.7  1462.68
    9046.72  34846.2  39586.1  1456.17
    9048.74  34797.8  38858.4  1439.64
    9050.75  33910.4  37596.7  1376.09
    9052.88  33715.9  37688  1367.51
    9055  33508.4  38239.1  1365.92
    9057.12  33354.9  38960.2  1363.3
    9059.35  33281.4  39796.2  1361.66
    9061.58  33170.8  40514.2  1354
    9063.86  33143.3  41276.1  1357.32
    9066.19  33017.7  41725.9  1353.62
    9068.53  32946.1  42190.6  1345.89
    9070.92  32919.5  42705.3  1342.15
    9073.36  32894.9  43151  1346.38
    9075.81  32875.3  43452.5  1363.59
    9078.3  32843.6  43669  1378.78
    9080.85  32846.9  43833.4  1410.94
    9083.46  32840.2  43923.8  1426.09
    9086.07  32775.5  44093  1440.21
    9088.73  32813.8  44395.3  1451.32
    9091.39  32833  44498.4  1460.4
    9094.16  32817.3  44618.5  1472.46
    9096.93  32833.5  44923.5  1485.49
    9099.75  32782.7  45073.5  1496.51
    9102.58  32763.9  45310.3  1492.5
    9105.46  32812  45653.2  1484.47
    9108.39  32802.2  45762.9  1473.42
    9111.38  32783.3  45972.6  1464.35
    9114.37  32750.4  46297.2  1463.26
    9117.42  32802.5  46512.8  1470.15
    9120.47  32816.6  46453.2  1470.01
    9123.57  32812.6  45969.6  1449.85
    9126.73  32804.7  45133  1416.67
    9129.94  32842.7  44441.3  1392.47
    9133.15  32820.7  43970.5  1388.25
    9136.42  32777.7  43808.6  1392.01
    9139.75  32795.7  43961.7  1405.74
    9143.08  32728.6  44071.7  1425.45
    9146.46  32471.6  43920.7  1451.14
    9149.9  32912.5  44591.5  1486.81
    9153.34  32914.4  44906.3  1522.46
    9156.84  32701.3  45094.1  1555.09
    9160.4  32727.1  45773.8  1573.69
    9164  33105  47334.4  1575.27
    9167.62  32993.8  48401.9  1562.83
    9171.23  32964.6  49626.4  1552.37
    9174.96  32966.4  50586.8  1557.89
    9178.69  32950.2  50605.1  1559.39
    9182.42  32956  49864.4  1556.86
    9186.26  32925.7  48932.6  1550.32
    9190.11  32952.4  48557.8  1549.75
    9193.96  32938.1  48860.8  1560.16
    9197.86  32915.8  49488.8  1573.54
    9201.83  32895.5  50073.8  1570.91
    9205.85  32906.1  50738.6  1560.26
    9209.87  32916.8  51569.4  1562.58
    9213.95  32889.4  51924.2  1568.88
    9218.04  32905  51628.9  1576.16
    9222.18  32842.6  50843.5  1585.42
    9226.38  32863.2  50264  1602.66
    9230.64  32819.7  50428.5  1631.87
    9234.91  32860.2  51418.9  1666.06
    9239.17  32825.7  52329.2  1689.23
    9243.55  32818.2  52761.5  1696.38
    9247.88  32830.7  52678.7  1698.51
    9252.33  32781.2  52451.8  1696.62
    9256.77  32761.6  52436.9  1697.71
    9261.28  32699  52437.9  1696.77
    9265.79  32745.5  52794.8  1698.81
    9270.36  32733.8  53559.7  1709.83
    9274.99  32710.2  54648.5  1720.83
    9279.62  32685.6  55545.2  1736.81
    9284.32  32692.9  55819.9  1738.76
    9289.02  32670.2  55631.4  1742.69
    9293.78  32631.5  55573  1744.61
    9298.6  32599.8  55730.4  1747.5
    9303.42  32554.1  55932.8  1764.36
    9308.31  32517.3  56190.2  1777.21
    9313.25  32473.6  56754.4  1804.04
    9318.2  32435.8  57416.6  1828.84
    9323.16  32415  57809.8  1843.62
    9328.18  32367.2  57793.8  1851.38
    9333.25  32343.3  57789.8  1861.12
    9338.39  32301.5  57958.7  1878.84
    9343.54  32281.6  58564.6  1898.54
    9348.69  32234.7  59557.4  1914.21
    9353.9  32224.8  60705.1  1936.86
    9359.18  32193.9  61218.8  1952.49
    9364.46  32150.9  61001.4  1957.1
    9369.8  32149  60456.9  1951.69
    9375.21  32115  60002.3  1953.26
    9380.62  32110  59990.7  1952.8
    9386.04  32095  60236.1  1963.32
    9391.52  32106.9  60626.3  1975.82
    9397.06  32125.9  61294.5  1996.3
    9402.62  32071.8  62094.6  2018.76
    9408.23  32120.7  63065.7  2048.2
    9413.85  32118.6  63577.7  2076.61
    9419.54  32148.5  63857.6  2092
    9425.29  32233.4  64438.4  2119.37
    9431.04  32211.2  65233.2  2146.72
    9436.81  32299  66369.9  2180.05
    9442.64  32299.9  67006.6  2191.36
    9448.53  32299.6  67402.2  2205.64
    9454.43  32307.4  67810.7  2229.91
    9460.39  32271.2  68142.2  2216.15
    9466.36  32233.9  68380.5  2278.37
    9472.4  32232.6  68268.9  2275.56
    9478.45  32172.3  68051.1  2275.74
    9484.56  32100  68113.3  2288.89
    9490.68  32070.7  68757.4  2306.03
    9496.87  32001.4  69572.5  2330.14
    9503.06  31968  70204.4  2348.23
    9509.32  31917.6  70362.4  2359.3
    9515.59  31907.2  70597.2  2379.34
    9521.93  31778.8  71002  2405.37
    9528.33  31801.3  72163.7  2442.37
    9534.68  31869.9  73230.3  2482.35
    9541.16  31936.4  73809.9  2500.31
    9547.65  31860.9  73861.4  2518.25
    9554.15  31826.4  74104.9  2540.17
    9560.71  31697.9  74238.3  2547.06
    9567.29  31666.4  74676.6  2569.94
    9573.93  31555.8  74812.8  2585.79
    9580.64  31651.2  75270  2618.62
    9587.36  31552.6  75305.1  2635.43
    9594.09  31447  75764.1  2657.21
    9600.89  31382.4  76634.1  2674.98
    9607.7  31251.7  77142  2699.72
    9614.58  31126.1  77267.9  2733.44
    9621.47  30968.4  77354.7  2746.14
    9628.43  30834.7  77755.4  2766.82
    9635.4  30761  78461  2798.48
    9638.89  30682.6  78695.8  2798.8