File: data/Cu/CuS_covellite_13K_01.xdi
# XDI/1.0
# Column.1: energy eV
# Column.2: i0
# Column.3: itrans
# Column.4: irefer
# Beamline.name: SSRL 4-3
# Detector.I0: N2 15cm
# Detector.I1: Ar 30cm
# Detector.I2: Ar 15cm
# Element.edge: K
# Element.symbol: Cu
# Mono.d_spacing: 1.92009
# Mono.name: Si(220)
# Mono.notes: unfocused, detuned 50%,higher piezo, at E=9010eV
# Sample.formula: CuS
# Sample.name: CuS  copper sulfide  covellite
# Sample.prep: powder, mixed with B(OH)3
# Sample.reference: Cu metal foil
# Sample.temperature: 13K
# Scan.start_time: 1996-07-25 15:02:33
# ///
#    Note: mono d_spacing is nominal!
#     exafs to K13
#     432  E XMU XMUR I0
#-------------
#   energy   i0   itrans  irefer
    8759.98  29774.9  24187.2  14099.8
    8779.99  29061.9  24252.2  14242.8
    8800  28347.9  24314.2  14375.8
    8820  27641.9  24372.2  14500.8
    8840.01  26975.9  24415.2  14636.8
    8860.02  26253.9  24435.2  14730.8
    8879.98  25624.9  24475.2  14856.8
    8899.98  24963.9  24488.2  14979.8
    8919.98  24322.9  24486.2  15042.8
    8940.02  23687.9  24458.2  15113.8
    8960.02  23010.9  24445.2  15014.8
    8960.98  22988.9  24376.2  15014.8
    8961.99  22940.9  24379.2  14984.8
    8963  22894.9  24354.2  14975.8
    8964.02  22884.9  24318.2  14962.8
    8964.98  22828.9  24285.2  14924.8
    8965.99  22838.9  24326.2  14921.8
    8967.01  22883.9  24336.2  14925.8
    8968.02  22829.9  24317.2  14880.8
    8968.98  22809.9  24298.2  14859.8
    8970  22756.9  24285.2  14776.8
    8971.01  22713.9  24245.2  14714.8
    8971.98  22671.9  24264.2  14635.8
    8972.99  22582.9  24261.2  14498.8
    8974.01  22563.9  24199.2  14370.8
    8975.02  22529.9  24199.2  14159.8
    8975.99  22513.9  24181.2  13871.8
    8977  22484.9  24075.2  13277.8
    8978.02  22464.9  23880.2  11928.8
    8978.99  22402.9  23714.2  9607.8
    8980  22404.9  23359.2  7434.8
    8981.02  22352.9  22730.2  6203.8
    8981.99  22302.9  21545.2  5722.8
    8983  22239.9  20035.2  5417.8
    8984.02  22240.9  18738.2  5014.8
    8984.99  22168.9  17508.2  4505.8
    8986.01  22172.9  16626.2  4079.8
    8986.98  22123.9  16451.2  3814.8
    8987.99  22095.9  16609.2  3555.8
    8989.01  22047.9  16643.2  3234.8
    8989.98  21992.9  16474.2  2882.8
    8991  21964.9  16291.2  2562.8
    8992.02  21972.9  16147.2  2323.8
    8992.99  21922.9  15932.2  2179.8
    8994.01  21893.9  15687.2  2119.8
    8994.98  21888.9  15500.2  2139.8
    8996  21837.9  15363.2  2200.8
    8997.02  21832.9  15330.2  2277.8
    8997.99  21769.9  15251.2  2314.8
    8999.01  21750.9  15173.2  2309.8
    8999.98  21703.9  15092.2  2252.8
    9001.01  21681.9  15075.2  2155.8
    9001.98  21612.9  15045.2  2067.8
    9003  21617.9  15070.2  2028.8
    9004.02  21533.9  15006.2  2042.8
    9004.99  21515.9  14988.2  2106.8
    9006.02  21533.9  14989.2  2181.8
    9006.99  21458.9  14928.2  2230.8
    9008.01  21432.9  14900.2  2280.8
    9008.99  21399.9  14869.2  2323.8
    9010.01  21351.9  14828.2  2364.8
    9011.08  21299.9  14806.1  2389.76
    9012.21  21316.8  14861.7  2398.63
    9013.39  21289.6  14938  2393.43
    9014.57  21269.4  15069.1  2388.14
    9015.85  21269.1  15250  2370.77
    9017.14  21274.7  15410.6  2340.32
    9018.42  21266.2  15532.9  2296.78
    9019.8  21298.7  15680  2254.16
    9021.19  21281.2  15777.8  2206.46
    9022.63  21299.5  15881.4  2168.68
    9024.12  21304.8  15929.7  2128.81
    9025.61  21351  15939.7  2118.86
    9027.15  21387.2  15902.5  2138.83
    9028.74  21419.2  15841  2191.72
    9030.39  21448.3  15798.3  2261.53
    9032.04  21528.2  15827.3  2336.25
    9033.74  21575.1  15866.1  2400.89
    9035.49  21609.9  15908.6  2439.44
    9037.24  21635.7  15946.9  2451.92
    9039.05  21364.3  15746.9  2426.31
    9040.9  21964.9  16132.6  2447.62
    9042.81  22002.5  16083.1  2438.85
    9044.77  22188  16119.3  2454.99
    9046.74  22280.4  16075.3  2464.06
    9048.75  22360.7  16026  2440.04
    9050.77  22453  15996.4  2412.93
    9052.84  22536.2  16018.6  2415.75
    9054.96  22682.3  16154.6  2437.48
    9057.13  22824.4  16337.3  2443.13
    9059.36  22935.4  16505.7  2428.7
    9061.59  23059.3  16660.9  2422.18
    9063.87  23181.2  16806.8  2420.59
    9066.16  23321  17003.4  2424.91
    9068.54  23444.7  17243.8  2421.15
    9070.93  23617.3  17525  2424.3
    9073.32  23750.9  17756.9  2446.37
    9075.82  23875.5  17973.5  2507.37
    9078.32  24016.9  18181.9  2605.27
    9080.87  24206.3  18435  2709.1
    9083.42  24307.6  18616.9  2795.84
    9086.08  24489.9  18850.5  2886.5
    9088.69  24673.1  19058.8  2950.08
    9091.4  24791.2  19187.9  3006.58
    9094.12  24992.2  19324.7  3100.99
    9096.94  25172.2  19413.3  3182.32
    9099.71  25352.1  19490.6  3217.57
    9102.59  25531  19568.7  3202.74
    9105.47  25727.7  19681.5  3155.82
    9108.41  25910.4  19773.1  3107.82
    9111.34  26077.1  19856.4  3083.74
    9114.33  26302.7  20025.4  3087.58
    9117.38  26499.2  20241.2  3132.33
    9120.48  26706.6  20503.7  3159
    9123.58  26873  20722  3133.59
    9126.74  27067.3  20983  3059.1
    9129.95  27290.5  21266.7  3012.52
    9133.17  27484.7  21486.2  3033.87
    9136.44  27621.8  21636.5  3097.12
    9139.76  27850.8  21874.5  3175.3
    9143.09  27933.8  21986.2  3284.4
    9146.48  28029.7  22123.7  3437.4
    9149.92  28558.5  22653.9  3650.33
    9153.36  28801.2  22978.8  3866.18
    9156.85  28804.9  23091.5  4030.95
    9160.41  29096.6  23406  4126.63
    9163.97  29612.1  23882.2  4117.23
    9167.58  29734.6  24127.1  4024.75
    9171.25  29948  24513.8  3962.18
    9174.92  30118.4  24817.2  3955.53
    9178.65  30358.7  25078.4  4000.8
    9182.44  30527.9  25189.3  4043.99
    9186.22  30773  25339.9  4101.1
    9190.07  30983.1  25501.3  4147.12
    9193.97  31169.1  25808.4  4216.06
    9197.88  31405.1  25943.3  4279.92
    9201.84  31579.9  26121.9  4252.69
    9205.86  31834.7  26361.3  4192.39
    9209.89  32033.5  26585.4  4193.99
    9213.97  32188.2  26833.3  4251.52
    9218.05  32487.8  27265.9  4358.97
    9222.2  32666.3  27631.2  4503.33
    9226.4  32958.8  28040.3  4694.61
    9230.6  33132.2  28297.1  4875.81
    9234.86  33347.5  28588.7  5034.92
    9239.19  33542.8  28907  5147.96
    9243.51  33721  29204  5200.91
    9247.9  33983.1  29502.8  5243.78
    9252.34  34148.2  29702.4  5288.56
    9256.79  34380.2  29946.6  5331.26
    9261.29  34609.1  30219.7  5383.89
    9265.81  34814.9  30544.4  5402.43
    9270.38  35019.7  30932  5446.88
    9275.01  35254.5  31372.2  5502.25
    9279.64  35440.1  31700.2  5557.55
    9284.33  35622.7  31981  5607.76
    9289.03  35842.2  32255.5  5671.88
    9293.79  36042.7  32544.7  5725.92
    9298.61  36263.1  32831.7  5802.89
    9303.44  36419.4  33070.4  5898.76
    9308.32  36605.6  33334.8  6025.56
    9313.21  36803.8  33632  6170.27
    9318.16  36968.9  33889  6292.91
    9323.17  37173  34179.7  6390.46
    9328.19  37360.9  34487.1  6473.93
    9333.27  37535.8  34863.3  6594.31
    9338.35  37727.7  35268.2  6747.61
    9343.5  37904.5  35636.9  6897.83
    9348.7  38089.2  36002.3  6973.97
    9353.92  38261.8  36319.4  7041.02
    9359.19  38451.4  36640.3  7121
    9364.48  38955.9  37265  7256.89
    9369.82  39123.3  37563.4  7329.69
    9375.17  39310.7  37895.5  7405.42
    9380.58  39448  38181.3  7466.06
    9386.05  39629.2  38560  7538.61
    9391.53  39759.4  38865.3  7620.1
    9397.08  39988.5  39293.4  7734.49
    9402.63  40182.5  39667.2  7848.8
    9408.25  40295.4  39952.8  7989.03
    9413.87  40429.3  40264.2  8148.18
    9419.55  40582.2  40603.2  8290.25
    9425.25  40754.9  40956  8427.22
    9431  40890.6  41262.6  8523.13
    9436.82  41029.2  41582.9  8628.94
    9442.65  41220.8  41919.9  8740.68
    9448.49  41293.2  42179.7  8836.33
    9454.44  41380.7  42476.3  8961.9
    9460.35  41553  42816.5  9048.39
    9466.38  41668.3  43172.6  9255.8
    9472.36  41820.5  43525.3  9362.12
    9478.47  41927.7  43905.8  9474.36
    9484.52  42020.7  44225.1  9586.52
    9490.7  42153.7  44710.1  9693.6
    9496.83  42314.7  45123.8  9800.59
    9503.08  42421.6  45315.3  9892.5
    9509.34  42520.4  45648.5  9987.32
    9515.61  42593.1  45928.5  10119.1
    9521.94  42668.8  46182.2  10260.7
    9528.29  42646.4  46361.6  10410.3
    9534.7  42827.9  46767.8  10575.8
    9541.18  43014.4  47203.7  10749.2
    9547.67  43077.8  47516.4  10881.6
    9554.16  43189.1  47898.9  11035.8
    9560.73  43253.4  48239  11186
    9567.3  43339.6  48574.9  11333.1
    9573.94  43420.7  48909.6  11477.1
    9580.6  43482.7  49218  11631
    9587.32  43544.7  49576.1  11781.8
    9594.11  43601.7  49903  11937.6
    9600.85  43652.5  50166.6  12069.3
    9607.72  43759.3  50550  12220.9
    9614.54  43845  50924.1  12360.4
    9621.49  43926.7  51267  12517.8
    9628.39  44033.2  51724.6  12697.1
    9635.41  44105.8  52028.9  12837.4
    9638.9  44141.5  52209  12906