File: data/Fe/Fe2O3_rt_01.xdi
# XDI/1.0
# Column.1: energy eV
# Column.2: i0
# Column.3: itrans
# Beamline.name: APS 20-BM-B
# Beamline.notes: vert slits = unknown
# Detector.I0: N2 15cm
# Detector.I1: N2 15cm
# Element.edge: K
# Element.symbol: Fe
# Mono.d_spacing: 3.13550
# Mono.name: Si(111)
# Mono.notes: unfocussed, detuned 50%
# Sample.formula: Fe2O3
# Sample.name: Fe2O3 powder  Room Temperature
# Sample.prep: powder on tape, 16 layers
# Sample.reference: none
# Sample.temperature: Room Temperature
# Scan.start_time: 2001-08-10 11:45:00
# ///
#    Note: mono d_spacing is nominal!
#     data from NXS school, 2001
#     412 E XMU I0
#-------------
#   energy   i0   itrans
    6911.83  272002  121091
    6921.76  268827  120841
    6931.79  255214  115822
    6941.83  276310  126659
    6951.96  274820  127226
    6961.99  274313  128218
    6971.94  274012  129304
    6982.01  273774  130465
    6991.93  273771  131661
    7001.84  273682  132819
    7011.84  273571  134044
    7021.86  273493  135246
    7031.95  273200  136352
    7041.85  273100  137520
    7051.77  273038  138725
    7061.82  272878  139874
    7071.77  272679  140929
    7081.69  272240  141831
    7091.54  271377  142369
    7101.58  233593  123222
    7102.28  250354  132004
    7103.19  271114  142986
    7104  274140  144616
    7104.61  274276  144660
    7105.51  274103  144584
    7106.23  273949  144464
    7107.05  273839  144340
    7107.94  273727  144155
    7108.6  273590  143966
    7109.49  273456  143539
    7110.27  273327  142994
    7110.99  273230  142011
    7111.91  273116  138426
    7112.66  272990  132720
    7113.36  272875  128830
    7114.24  272838  131978
    7114.89  272826  133719
    7115.79  272740  133378
    7116.65  272686  132994
    7117.24  272587  132675
    7118.21  272490  131280
    7118.95  272395  128162
    7119.73  272328  122347
    7120.63  272228  112392
    7121.3  272163  102025
    7122.07  272151  88665.2
    7122.91  272063  79094.2
    7123.56  272008  72985.2
    7124.5  271940  64585.2
    7125.33  271934  56154.2
    7125.95  271921  47527.2
    7126.94  271778  39710.2
    7127.62  271428  36413.2
    7128.47  271435  33550.2
    7129.33  271502  30479.2
    7129.96  271442  27470.2
    7130.81  271290  23661.2
    7131.59  271227  21640.2
    7132.29  271246  21253.2
    7133.23  271231  22542.2
    7134  271186  24288.2
    7134.74  271245  26477.2
    7135.66  271199  28163.2
    7136.29  271165  28963.2
    7137.2  271145  29622.2
    7138.03  271145  30131.2
    7138.65  271084  30653.2
    7139.54  271041  31583.2
    7140.27  271066  32557.2
    7141.05  270977  33851.2
    7141.95  271050  35154.2
    7142.67  271034  35964.2
    7143.48  270941  36479.2
    7144.35  270977  36362.2
    7144.99  270901  35987.2
    7145.91  270947  35579.2
    7147.12  272298  35963
    7149.47  274844  39863.4
    7151.98  277400  44449.7
    7154.55  279860  47425
    7157.09  282313  50292.2
    7159.7  284619  52857.2
    7162.41  286944  53872.8
    7165.27  289122  53459
    7168.16  291260  52294.8
    7171.08  293436  50252
    7174.19  295500  47528.7
    7177.24  297604  46178.7
    7180.57  299464  45058
    7183.7  300498  44304.5
    7187.25  302879  44625.3
    7190.61  305658  45363.1
    7194.19  307644  46333.1
    7197.89  309593  47608.2
    7201.38  311358  48938.3
    7205.39  313188  50515.3
    7209.17  314883  51884.4
    7213.09  316728  52784.4
    7217.07  318603  53182.2
    7221.23  320296  53337
    7225.48  322092  53508.6
    7229.72  323824  54150
    7234.1  325615  55392.2
    7238.5  327500  56969.1
    7243.04  324367  57873.8
    7247.54  326912  59323.3
    7252.27  330961  60021.4
    7256.91  332519  59579.2
    7261.68  334055  58782.7
    7266.41  335600  58198.9
    7271.38  337018  58167.6
    7276.52  337915  58469
    7281.53  339358  59251
    7286.7  339970  60304.6
    7291.92  339494  61525.7
    7297.38  343559  63596.4
    7302.59  345274  64920.6
    7308.13  346796  65989.4
    7313.68  348089  66757.7
    7319.15  348868  67000.4
    7325.02  350435  67210.7
    7330.56  350882  67391.5
    7336.43  353117  68427.7
    7342.41  354248  69567.4
    7348.32  355110  70811.5
    7354.42  356814  72196.1
    7360.53  357995  73206.1
    7366.76  359139  73912.5
    7373.05  357296  73805.4
    7379.53  361153  75059.7
    7385.74  350053  73236.3
    7392.32  363935  76497.3
    7398.98  364881  77049.7
    7405.61  366149  77957.5
    7412.34  367158  79056.7
    7419.06  368127  80287.2
    7425.97  369291  81581.1
    7432.89  370326  82743.3
    7439.82  369000  83255.9
    7446.98  371376  84431.8
    7454.28  372590  85284
    7461.48  373805  86271.5
    7468.85  374908  87369.4
    7476.12  375838  88437.5
    7483.7  376846  89498
    7491.18  377713  90532.8
    7498.62  378522  91535.9
    7506.38  379198  92571.2
    7514.14  379972  93639.9
    7522  380835  94715.8
    7529.72  381793  95716
    7537.76  382521  96696.5
    7545.82  382085  97409.2
    7553.64  385317  99199.2
    7562  385856  100402
    7570.27  386497  101511
    7578.52  387189  102651
    7586.95  387968  103837
    7595.26  388722  105027
    7603.89  389523  106237
    7612.35  390159  107355
    7621.12  390987  108602
    7629.83  389927  109337
    7638.68  391487  110878
    7647.78  393087  112429
    7656.82  393746  113751
    7666.03  394289  115014
    7675.4  395171  116368
    7684.75  395844  117628
    7694.15  396509  118946
    7703.77  396909  120186
    7713.41  397575  121586
    7723.1  398134  122997
    7732.72  398734  124366
    7742.61  399353  125837
    7752.58  399845  127248
    7762.6  400486  128712
    7772.67  400982  130176
    7782.76  401672  131666
    7792.88  402001  133060
    7803.02  401864  134307
    7813.3  402831  135948
    7823.69  403360  137490
    7834.11  403795  138988
    7844.68  404047  140485
    7855.26  404478  142040
    7866  405062  143649
    7876.82  406337  145529
    7887.65  406102  146875
    7898.54  406264  148370
    7909.44  406609  149900
    7920.42  407015  151512
    7931.46  407437  153144
    7942.55  407632  154691
    7953.84  403585  154669
    7965.29  407925  157878
    7976.72  400704  156620
    7988.2  409027  161410
    7999.59  409230  163066
    8011.3  409372  164743
    8023.12  409473  166404
    8034.77  410006  168257
    8046.47  410089  169925
    8058.45  410359  171729
    8070.34  408779  172696
    8082.23  410861  175312
    8084.23  410812  175577