File: data/Fe/fe2o3_rt.xdi
# XDI/1.0 GSE/1.0
# Column.1: energy eV
# Column.2: mutrans
# Column.3: i0
# Element.edge: K
# Element.symbol: Fe
# Scan.edge_energy: 7112.
# Mono.name: Si 111
# Mono.d_spacing: 3.13550
# Beamline.name: 13-BM-D
# Beamline.collimation: none
# Beamline.focusing: no
# Beamline.harmonic_rejection: detuned 50%
# Facility.name: APS
# Facility.energy: 7.00 GeV
# Facility.xray_source: APS bending magnet
# Scan.start_time: 2002-03-16T14:48:54
# Detector.I0: 15cm  N2
# Detector.I1: 15cm  N2
# Sample.name: Fe2O3
# Sample.prep: powder on tape, 5 layers
# ///
# room temperature
# measured at beamline 13-BM-D
# vert slits = 2mm (at 45m)
#----
#   energy       mutrans            i0
  6962       0.452695        304063.00
  6982       0.428866        305972.00
  7002       0.40586        305931.00
  7022       0.382274        306003.00
  7042       0.359829        305752.00
  7062       0.337169        305660.00
  7082       0.316471        305811.00
  7092.5       0.305634        305329.00
  7093.5       0.303904        305163.00
  7094.5       0.302477        305020.00
  7095.5       0.301436        304904.00
  7096.5       0.300646        305066.00
  7097.5       0.299904        304961.00
  7098.5       0.299011        305127.00
  7099.5       0.298016        304778.00
  7100.5       0.297265        304611.00
  7101.5       0.295413        304734.00
  7102.5       0.294942        304780.00
  7103.5       0.293888        304695.00
  7104.5       0.292805        304495.00
  7105.5       0.291376        304514.00
  7106.5       0.291262        304692.00
  7107.5       0.290609        304413.00
  7108.5       0.290319        304433.00
  7109.5       0.288749        304233.00
  7110.5       0.288668        304323.00
  7111.5       0.290438        304147.00
  7112.5       0.294945        304253.00
  7113.5       0.298012        304293.00
  7114.5       0.297233        304305.00
  7115.5       0.295707        304110.00
  7116.5       0.296051        303264.00
  7117.5       0.296141        304847.00
  7118.5       0.29779        303835.00
  7119.5       0.30345        303972.00
  7120.5       0.315325        303964.00
  7121.5       0.341593        303773.00
  7122.5       0.380218        304826.00
  7123.5       0.415562        305418.00
  7124.5       0.447635        305578.00
  7125.5       0.487507        305555.00
  7126.5       0.531964        305373.00
  7127.5       0.571946        305396.00
  7128.5       0.605416        305306.00
  7129.5       0.620231        305231.00
  7130.5       0.623153        305162.00
  7131.5       0.632184        305375.00
  7132.88       0.643902        304944.00
  7134.71       0.622981        305143.00
  7136.61       0.596353        305115.00
  7138.58       0.572886        305011.00
  7140.63       0.545217        305100.00
  7142.76       0.525836        304915.00
  7144.97       0.519419        304686.00
  7147.25       0.51735        304662.00
  7149.61       0.502508        304795.00
  7152.04       0.485709        304704.00
  7154.55       0.471282        304758.00
  7157.14       0.457678        304547.00
  7159.8       0.449523        304569.00
  7162.54       0.447821        304602.00
  7165.35       0.449973        304438.00
  7168.25       0.454756        304785.00
  7171.21       0.465457        303077.00
  7174.26       0.482301        304563.00
  7177.38       0.490218        304285.00
  7180.57       0.490083        304190.00
  7183.85       0.485761        304086.00
  7187.2       0.47918        304024.00
  7190.62       0.473844        305363.00
  7194.13       0.465176        305949.00
  7197.7       0.456919        306072.00
  7201.36       0.447554        305966.00
  7205.09       0.438101        305815.00
  7208.9       0.4322        305812.00
  7212.78       0.427282        305785.00
  7216.74       0.424106        305824.00
  7220.78       0.420832        305842.00
  7224.89       0.418331        305619.00
  7229.08       0.412556        305604.00
  7233.34       0.406853        305622.00
  7237.69       0.403497        305402.00
  7242.1       0.398464        305516.00
  7246.6       0.390677        305393.00
  7251.17       0.384397        305330.00
  7255.81       0.379417        305434.00
  7260.54       0.378251        305271.00
  7265.34       0.375221        304848.00
  7270.21       0.373426        305414.00
  7275.16       0.368134        305094.00
  7280.19       0.364448        305077.00
  7285.3       0.35947        304873.00
  7290.48       0.352838        304991.00
  7295.73       0.345821        304834.00
  7301.07       0.33718        304716.00
  7306.48       0.327712        305485.00
  7311.96       0.318681        304657.00
  7317.53       0.309361        304643.00
  7323.16       0.302673        304621.00
  7328.88       0.299319        304869.00
  7334.67       0.297256        306276.00
  7340.54       0.294978        306432.00
  7346.48       0.289818        306266.00
  7352.5       0.282647        306252.00
  7358.6       0.274823        306162.00
  7364.77       0.265621        306111.00
  7371.02       0.257744        306151.00
  7377.35       0.250469        306085.00
  7383.75       0.243831        306191.00
  7390.23       0.236514        305978.00
  7396.78       0.229781        306084.00
  7403.41       0.226322        305781.00
  7410.12       0.221859        305634.00
  7416.9       0.215182        306612.00
  7423.76       0.207573        305398.00
  7430.7       0.198994        305659.00
  7437.71       0.189253        305491.00
  7444.8       0.180784        305395.00
  7451.96       0.172262        305404.00
  7459.2       0.166236        305436.00
  7466.52       0.159823        305382.00
  7473.91       0.15345        305312.00
  7481.39       0.147143        305158.00
  7488.93       0.139444        304994.00
  7496.55       0.132052        305063.00
  7504.25       0.124002        304218.00
  7512.03       0.11668        305190.00
  7519.88       0.108542        305095.00
  7527.81       0.100494        305039.00
  7535.81       0.0932533    305070.00
  7543.89       0.0861654    304934.00
  7552.05       0.0784962    304772.00
  7560.28       0.0701037    305033.00
  7568.59       0.0623945    304600.00
  7576.98       0.0548954    304490.00
  7585.44       0.0464308    304756.00
  7593.98       0.0386613    304603.00
  7602.59       0.0307897    304467.00
  7611.28       0.0230901    304510.00
  7620.05       0.0152898    304518.00
  7628.89       0.00787611    304595.00
  7637.81      -0.000514117    304133.00
  7646.81      -0.00961673    304291.00
  7655.88      -0.0181069    304097.00
  7665.03      -0.0268015    305641.00
  7674.26      -0.0341576    304032.00
  7683.56      -0.0412652    304151.00
  7692.94      -0.0497338    303864.00
  7702.39      -0.0571858    303868.00
  7711.92      -0.0658025    303862.00
  7721.52      -0.0740791    303847.00
  7731.21      -0.0821212    303601.00
  7740.97      -0.0908718    307241.00
  7750.8      -0.0990289    303525.00
  7760.72      -0.107659        303652.00
  7770.7      -0.116561        303564.00
  7780.77      -0.124818        303863.00
  7790.91      -0.132572        303394.00
  7801.12      -0.141364        303399.00
  7811.42      -0.15013        304068.00
  7821.79      -0.158104        305271.00
  7832.23      -0.167274        305778.00
  7842.76      -0.175175        305223.00
  7853.35      -0.183812        305185.00
  7864.03      -0.192359        305086.00
  7874.78      -0.200444        305131.00
  7885.61      -0.208779        304982.00
  7896.51      -0.217105        304866.00
  7907.49      -0.225743        304925.00
  7918.55      -0.234972        304593.00
  7929.68      -0.24381        304758.00
  7940.89      -0.252009        304386.00
  7952.18      -0.260476        304668.00
  7963.54      -0.268625        304556.00
  7969.25      -0.273007        304796.00