File: data/Fe/fe3c_rt.xdi
# XDI/1.0 GSE/1.0
# Column.1: energy eV
# Column.2: mutrans
# Column.3: i0
# Element.edge: K
# Element.symbol: Fe
# Scan.edge_energy: 7112.
# Mono.name: Si 111
# Mono.d_spacing: 3.13550
# Beamline.name: 13-BM-D
# Beamline.collimation: none
# Beamline.focusing: no
# Beamline.harmonic_rejection: detuned 50%
# Facility.name: APS
# Facility.energy: 7.00 GeV
# Facility.xray_source: APS bending magnet
# Scan.start_time: 2002-03-16T18:27:34
# Detector.I0: 15cm  N2
# Detector.I1: 15cm  N2
# Sample.name: Fe3C
# Sample.prep: powder on tape, 6 layers
# ///
# room temperature
# measured at beamline 13-BM-D
# vert slits = 2mm (at 45m)
#----
#   energy       mutrans            i0
  6962      -0.0695303    303823.80
  6982      -0.0969281    305927.80
  7002      -0.123078        305831.80
  7022      -0.148706        305783.80
  7042      -0.173696        306033.80
  7062      -0.198392        305626.80
  7082      -0.220285        305689.80
  7092.5      -0.228738        305282.80
  7093.5      -0.229658        305134.80
  7094.5      -0.229704        305155.80
  7095.5      -0.229977        305090.80
  7096.5      -0.230776        305006.80
  7097.5      -0.231029        305039.80
  7098.5      -0.230734        304953.80
  7099.5      -0.230644        304858.80
  7100.5      -0.229931        304834.80
  7101.5      -0.229567        304770.80
  7102.5      -0.228644        304758.80
  7103.5      -0.226803        304649.80
  7104.5      -0.224717        304620.80
  7105.5      -0.221233        304573.80
  7106.5      -0.216936        304455.80
  7107.5      -0.208544        304570.80
  7108.5      -0.194911        304432.80
  7109.5      -0.163037        304363.80
  7110.5      -0.0601169    304365.80
  7111.5       0.139997        305032.80
  7112.5       0.253594        306296.80
  7113.5       0.306079        306321.80
  7114.5       0.372684        306258.80
  7115.5       0.458619        306195.80
  7116.5       0.530848        305559.80
  7117.5       0.61521        306632.80
  7118.5       0.75156        306219.80
  7119.5       0.916178        305986.80
  7120.5        1.08963        305908.80
  7121.5        1.28677        305899.80
  7122.5        1.49772        305905.80
  7123.5        1.69562        305862.80
  7124.5        1.86047        305743.80
  7125.5        1.99061        305744.80
  7126.5        2.10198        305679.80
  7127.5        2.20707        305660.80
  7128.5        2.29006        305564.80
  7129.5        2.33695        305536.80
  7130.5        2.3379        305423.80
  7131.5        2.3095        305450.80
  7132.88        2.24129        305532.80
  7134.71        2.13935        305452.80
  7136.61        2.09143        305314.80
  7138.58        2.08716        305319.80
  7140.63        2.09232        305278.80
  7142.76        2.08992        305208.80
  7144.97        2.08045        305150.80
  7147.25        2.08087        305152.80
  7149.61        2.08878        305014.80
  7152.04        2.1071        305003.80
  7154.55        2.11964        304998.80
  7157.14        2.11512        304940.80
  7159.8        2.08824        304875.80
  7162.54        2.03017        304794.80
  7165.35        1.96796        304729.80
  7168.25        1.91849        304650.80
  7171.21        1.88728        303615.80
  7174.26        1.88221        304686.80
  7177.38        1.89548        304456.80
  7180.57        1.93148        304487.80
  7183.85        1.98632        304493.80
  7187.2        2.0296        304452.80
  7190.62        2.06247        304290.80
  7194.13        2.08493        304334.80
  7197.7        2.09683        304279.80
  7201.36        2.10097        304243.80
  7205.09        2.0893        304154.80
  7208.9        2.05186        304106.80
  7212.78        2.004        304049.80
  7216.74        1.95627        303947.80
  7220.78        1.90559        303866.80
  7224.89        1.86145        303963.80
  7229.08        1.8248        303835.80
  7233.34        1.79837        303762.80
  7237.69        1.78878        303775.80
  7242.1        1.80674        303725.80
  7246.6        1.8536        303597.80
  7251.17        1.90638        303547.80
  7255.81        1.94469        303558.80
  7260.54        1.96418        303444.80
  7265.34        1.9545        303261.80
  7270.21        1.91776        304191.80
  7275.16        1.86866        305517.80
  7280.19        1.81777        305487.80
  7285.3        1.78339        305446.80
  7290.48        1.76745        305363.80
  7295.73        1.75339        305247.80
  7301.07        1.74119        305162.80
  7306.48        1.73255        305947.80
  7311.96        1.72445        305110.80
  7317.53        1.71724        305112.80
  7323.16        1.7184        305048.80
  7328.88        1.72388        304936.80
  7334.67        1.73221        304955.80
  7340.54        1.73049        304859.80
  7346.48        1.71319        304835.80
  7352.5        1.68534        304762.80
  7358.6        1.6529        304790.80
  7364.77        1.62106        304722.80
  7371.02        1.60018        304654.80
  7377.35        1.58919        304610.80
  7383.75        1.57884        304601.80
  7390.23        1.57197        304424.80
  7396.78        1.56551        304420.80
  7403.41        1.55615        304457.80
  7410.12        1.54747        304274.80
  7416.9        1.54165        304935.80
  7423.76        1.5269        303941.80
  7430.7        1.51236        304239.80
  7437.71        1.49816        304106.80
  7444.8        1.48079        304044.80
  7451.96        1.46017        304380.80
  7459.2        1.44346        306017.80
  7466.52        1.42794        305961.80
  7473.91        1.41258        305861.80
  7481.39        1.397        305814.80
  7488.93        1.38427        305858.80
  7496.55        1.37191        305723.80
  7504.25        1.36142        304977.80
  7512.03        1.35203        305779.80
  7519.88        1.33949        305711.80
  7527.81        1.32333        305554.80
  7535.81        1.30726        305488.80
  7543.89        1.29436        305562.80
  7552.05        1.2805        305337.80
  7560.28        1.26539        305330.80
  7568.59        1.24748        305366.80
  7576.98        1.23113        305241.80
  7585.44        1.21667        305207.80
  7593.98        1.20246        305417.80
  7602.59        1.18841        305180.80
  7611.28        1.17506        305213.80
  7620.05        1.16095        304974.80
  7628.89        1.1461        304916.80
  7637.81        1.13073        304834.80
  7646.81        1.11558        304799.80
  7655.88        1.10282        304711.80
  7665.03        1.08762        306255.80
  7674.26        1.07433        304556.80
  7683.56        1.06021        304634.80
  7692.94        1.04648        304539.80
  7702.39        1.02994        304800.80
  7711.92        1.01355        306414.80
  7721.52       0.998603        306401.80
  7731.21       0.984505        306327.80
  7740.97       0.969503        310219.80
  7750.8       0.954504        306198.80
  7760.72       0.938223        306239.80
  7770.7       0.92474        306227.80
  7780.77       0.909324        306391.80
  7790.91       0.894668        306041.80
  7801.12       0.880287        305923.80
  7811.42       0.865749        305957.80
  7821.79       0.850668        305896.80
  7832.23       0.834949        306320.80
  7842.76       0.820336        305776.80
  7853.35       0.805687        305734.80
  7864.03       0.789869        305675.80
  7874.78       0.775014        305676.80
  7885.61       0.759485        305612.80
  7896.51       0.744513        305475.80
  7907.49       0.728367        305453.80
  7918.55       0.712981        305404.80
  7929.68       0.699383        305439.80
  7940.89       0.684334        304923.80
  7952.18       0.670416        305291.80
  7963.54       0.655597        305144.80
  7969.25       0.648335        305495.80