File: data/Fe/Fe3C_rt_01.xdi
# XDI/1.0 GSE/1.0
# Column.1: energy eV
# Column.2: i0
# Column.3: itrans
# Beamline.name: APS 13-BM-D
# Beamline.notes: vert slits = 2mm (at 45m)
# Beamline.collimation: none
# Beamline.focusing: no
# Beamline.harmonic_rejection: detuned 50%
# Facility.name: APS
# Facility.energy: 7.00 GeV
# Facility.xray_source: APS bending magnet
# Detector.I0: N2 15cm
# Detector.I1: N2 15cm
# Element.edge: K
# Element.symbol: Fe
# Mono.d_spacing: 3.13550
# Mono.name: Si(111)
# Mono.notes: unfocussed, detuned 50%
# Sample.formula: Fe3C
# Sample.name: Fe3C
# Sample.prep: powder on tape, 6 layers
# Sample.reference: none
# Sample.temperature: Room Temperature
# Scan.edge_energy: 7112.
# Scan.start_time: 2002-03-16 18:27:34
# ///
#    Note: mono d_spacing is nominal!
#     Energy drive values recorded (encoder used, not recorded)
#     348 E XMU I0
#-------------
#   energy   i0   itrans
    6962  303824  325700
    6982  305928  337065
    7002  305832  345887
    7022  305784  354811
    7042  306034  364086
    7062  305627  372694
    7082  305690  381021
    7092.5  305283  383745
    7093.5  305135  383911
    7094.5  305156  383955
    7095.5  305091  383978
    7096.5  305007  384180
    7097.5  305040  384319
    7098.5  304954  384096
    7099.5  304859  383942
    7100.5  304835  383638
    7101.5  304771  383418
    7102.5  304759  383050
    7103.5  304650  382208
    7104.5  304621  381376
    7105.5  304574  379990
    7106.5  304456  378214
    7107.5  304571  375195
    7108.5  304433  369947
    7109.5  304364  358261
    7110.5  304366  323225
    7111.5  305033  265184
    7112.5  306297  237689
    7113.5  306322  225554
    7114.5  306259  210977
    7115.5  306196  193564
    7116.5  305560  179702
    7117.5  306633  165743
    7118.5  306220  144423
    7119.5  305987  122409
    7120.5  305909  102890
    7121.5  305900  84477.5
    7122.5  305906  68412.5
    7123.5  305863  56121.5
    7124.5  305744  47573.5
    7125.5  305745  41768.5
    7126.5  305680  37358.5
    7127.5  305661  33629.5
    7128.5  305565  30941.5
    7129.5  305537  29521.5
    7130.5  305424  29482.5
    7131.5  305451  30334.5
    7132.88  305533  32484.5
    7134.71  305453  35961.5
    7136.61  305315  37709.5
    7138.58  305320  37871.5
    7140.63  305279  37671.5
    7142.76  305209  37753.5
    7144.97  305151  38105.5
    7147.25  305153  38089.5
    7149.61  305015  37772.5
    7152.04  305004  37085.5
    7154.55  304999  36622.5
    7157.14  304941  36781.5
    7159.8  304876  37775.5
    7162.54  304795  40023.5
    7165.35  304730  42583.5
    7168.25  304651  44731.5
    7171.21  303616  45992.5
    7174.26  304687  46389.5
    7177.38  304457  45743.5
    7180.57  304488  44130.5
    7183.85  304494  41776.5
    7187.2  304453  40001.5
    7190.62  304291  38687.5
    7194.13  304335  37833.5
    7197.7  304280  37379.5
    7201.36  304244  37220.5
    7205.09  304155  37646.5
    7208.9  304107  39076.5
    7212.78  304050  40984.5
    7216.74  303948  42973.5
    7220.78  303867  45195.5
    7224.89  303964  47250.5
    7229.08  303836  48993.5
    7233.34  303763  50293.5
    7237.69  303776  50780.5
    7242.1  303726  49868.5
    7246.6  303598  47565.5
    7251.17  303548  45112.5
    7255.81  303559  43418.5
    7260.54  303445  42564.5
    7265.34  303262  42952.5
    7270.21  304192  44696.5
    7275.16  305518  47150.5
    7280.19  305488  49607.5
    7285.3  305447  51335.5
    7290.48  305364  52146.5
    7295.73  305248  52864.5
    7301.07  305163  53498.5
    7306.48  305948  54101.5
    7311.96  305111  54392.5
    7317.53  305113  54786.5
    7323.16  305049  54711.5
    7328.88  304937  54392.5
    7334.67  304956  53944.5
    7340.54  304860  54020.5
    7346.48  304836  54958.5
    7352.5  304763  56497.5
    7358.6  304791  58365.5
    7364.77  304723  60240.5
    7371.02  304655  61497.5
    7377.35  304611  62168.5
    7383.75  304602  62813.5
    7390.23  304425  63209.5
    7396.78  304421  63618.5
    7403.41  304458  64224.5
    7410.12  304275  64745.5
    7416.9  304936  65264.5
    7423.76  303942  66018.5
    7430.7  304240  67051.5
    7437.71  304107  67980.5
    7444.8  304045  69157.5
    7451.96  304381  70676.5
    7459.2  306018  72253.5
    7466.52  305962  73370.5
    7473.91  305862  74481.5
    7481.39  305815  75639.5
    7488.93  305859  76619.5
    7496.55  305724  77538.5
    7504.25  304978  78164.5
    7512.03  305780  79109.5
    7519.88  305712  80090.5
    7527.81  305555  81353.5
    7535.81  305489  82653.5
    7543.89  305563  83746.5
    7552.05  305338  84852.5
    7560.28  305331  86142.5
    7568.59  305367  87709.5
    7576.98  305242  89119.5
    7585.44  305208  90407.5
    7593.98  305418  91764.5
    7602.59  305181  92990.5
    7611.28  305214  94250.5
    7620.05  304975  95514.5
    7628.89  304917  96925.5
    7637.81  304835  98399.5
    7646.81  304800  99890.5
    7655.88  304712  101145
    7665.03  306256  103214
    7674.26  304557  104014
    7683.56  304635  105521
    7692.94  304540  106946
    7702.39  304801  108823
    7711.92  306415  111207
    7721.52  306402  112877
    7731.21  306328  114451
    7740.97  310220  117657
    7750.8  306199  117888
    7760.72  306240  119839
    7770.7  306228  121461
    7780.77  306392  123413
    7790.91  306042  125093
    7801.12  305924  126855
    7811.42  305958  128727
    7821.79  305897  130658
    7832.23  306321  132911
    7842.76  305777  134629
    7853.35  305735  136597
    7864.03  305676  138747
    7874.78  305677  140825
    7885.61  305613  142999
    7896.51  305476  145090
    7907.49  305454  147442
    7918.55  305405  149703
    7929.68  305440  151771
    7940.89  304924  153812
    7952.18  305292  156156
    7963.54  305145  158411
    7969.25  305496  159748