File: data/Fe/Fe3O4_rt_01.xdi
# XDI/1.0
# Column.1: energy eV
# Column.2: i0
# Column.3: itrans
# Beamline.name: APS 13-BM-D
# Beamline.notes: vert slits = 2mm (at 45m)
# Detector.I0: N2 15cm
# Detector.I1: N2 15cm
# Element.edge: K
# Element.symbol: Fe
# Mono.d_spacing: 3.13550
# Mono.name: Si(111)
# Mono.notes: unfocussed, detuned 50%
# Sample.formula: Fe3O4
# Sample.name: Fe3O4 powder  Room Temperature
# Sample.prep: powder on tape, 6 layers
# Sample.reference: none
# Sample.temperature: Room Temperature
# Scan.start_time: 2002-03-16 19:08:35
# ///
#    Note: mono d_spacing is nominal!
#     Energy drive values recorded (encoder used, not recorded)
#     348 E XMU I0
#-------------
#   energy   i0   itrans
    6962  302594  269023
    6982  304796  278856
    7002  304773  286565
    7022  304678  294382
    7042  304786  302441
    7062  304558  310200
    7082  304446  317710
    7092.5  304061  320466
    7093.5  303949  320543
    7094.5  303967  320793
    7095.5  303998  320745
    7096.5  305663  322893
    7097.5  305912  323271
    7098.5  305903  323266
    7099.5  305839  323497
    7100.5  305728  323496
    7101.5  305699  323523
    7102.5  305592  323351
    7103.5  305555  323068
    7104.5  305521  322841
    7105.5  305432  322387
    7106.5  305377  321877
    7107.5  305345  321090
    7108.5  305269  319967
    7109.5  305244  318011
    7110.5  305158  313387
    7111.5  305146  302514
    7112.5  305113  278087
    7113.5  305101  264903
    7114.5  305075  274299
    7115.5  304941  277703
    7116.5  304386  272101
    7117.5  305427  257549
    7118.5  304992  230509
    7119.5  304851  192510
    7120.5  304810  151155
    7121.5  304714  118432
    7122.5  304710  92127.5
    7123.5  304598  68464.5
    7124.5  304576  51490.5
    7125.5  304529  40931.5
    7126.5  304491  33904.5
    7127.5  305361  26839.5
    7128.5  306033  20559.5
    7129.5  306055  16971.5
    7130.5  305910  16373.5
    7131.5  305995  17358.5
    7132.88  305940  19786.5
    7134.71  305934  24147.5
    7136.61  305824  26617.5
    7138.58  305791  28991.5
    7140.63  305764  31922.5
    7142.76  305679  32516.5
    7144.97  305611  32186.5
    7147.25  305588  34637.5
    7149.61  305560  40270.5
    7152.04  305539  44304.5
    7154.55  305422  47228.5
    7157.14  305397  50358.5
    7159.8  305352  51796.5
    7162.54  305312  50997.5
    7165.35  305193  49320.5
    7168.25  305141  46571.5
    7171.21  304138  42884.5
    7174.26  305131  39590.5
    7177.38  305073  37123.5
    7180.57  305003  34855.5
    7183.85  304926  34434.5
    7187.2  304864  35177.5
    7190.62  304891  36209.5
    7194.13  304859  37941.5
    7197.7  304711  40050.5
    7201.36  304701  42391.5
    7205.09  305324  44620.5
    7208.9  306449  45764.5
    7212.78  306536  45646.5
    7216.74  306436  44695.5
    7220.78  306402  43361.5
    7224.89  306394  42387.5
    7229.08  306354  42630.5
    7233.34  306226  43874.5
    7237.69  306179  45845.5
    7242.1  306131  48620.5
    7246.6  306147  50556.5
    7251.17  306078  50271.5
    7255.81  306004  48548.5
    7260.54  305968  46564.5
    7265.34  305764  45165.5
    7270.21  306256  45062.5
    7275.16  305842  45373.5
    7280.19  305761  46107.5
    7285.3  305711  47485.5
    7290.48  305653  49692.5
    7295.73  305616  51326.5
    7301.07  305407  52578.5
    7306.48  306534  54064.5
    7311.96  305396  54637.5
    7317.53  305448  54333.5
    7323.16  305362  53488.5
    7328.88  305253  53024.5
    7334.67  305245  53630.5
    7340.54  305263  54707.5
    7346.48  305190  56254.5
    7352.5  305103  57540.5
    7358.6  304999  58456.5
    7364.77  304987  58978.5
    7371.02  304948  59133.5
    7377.35  304847  59891.5
    7383.75  304814  60780.5
    7390.23  304830  61348.5
    7396.78  304762  61643.5
    7403.41  304692  62382.5
    7410.12  304694  63463.5
    7416.9  305273  64722.5
    7423.76  304217  65682.5
    7430.7  304540  66856.5
    7437.71  304511  67962.5
    7444.8  304360  68540.5
    7451.96  304367  68950.5
    7459.2  304368  69768.5
    7466.52  304255  71101.5
    7473.91  304195  72333.5
    7481.39  304164  73056.5
    7488.93  304145  74112.5
    7496.55  304051  75109.5
    7504.25  303186  75908.5
    7512.03  303992  77076.5
    7519.88  303888  77998.5
    7527.81  303919  79071.5
    7535.81  303818  80228.5
    7543.89  303805  81431.5
    7552.05  303743  82768.5
    7560.28  303702  84172.5
    7568.59  303659  85273.5
    7576.98  305505  86870.5
    7585.44  305608  88115.5
    7593.98  305549  89184.5
    7602.59  305497  90157.5
    7611.28  305489  91452.5
    7620.05  305237  92868.5
    7628.89  305221  94324.5
    7637.81  305157  95861.5
    7646.81  305077  97443.5
    7655.88  305007  98911.5
    7665.03  306859  100877
    7674.26  304923  101607
    7683.56  305043  102902
    7692.94  304815  104231
    7702.39  304768  105593
    7711.92  304781  107231
    7721.52  304725  108827
    7731.21  304585  110578
    7740.97  308194  113691
    7750.8  304515  113921
    7760.72  304473  115512
    7770.7  304405  117323
    7780.77  304717  119041
    7790.91  304310  120565
    7801.12  304179  122368
    7811.42  304345  124296
    7821.79  304320  126090
    7832.23  304669  128255
    7842.76  304041  130084
    7853.35  304061  132065
    7864.03  305715  134793
    7874.78  306131  136955
    7885.61  306066  138884
    7896.51  306061  140928
    7907.49  306033  142880
    7918.55  305999  145036
    7929.68  305988  147223
    7940.89  305538  149142
    7952.18  305764  151486
    7963.54  305613  153932
    7969.25  305999  155168