File: data/Fe/Fe_metal_rt_03.xdi
# XDI/1.0
# Column.1: energy eV
# Column.2: i0
# Column.3: itrans
# Beamline.name: APS 13-BM-D
# Beamline.notes: vert slits = 2mm (at 45m)
# Beamline.collimation: none
# Beamline.focusing: no
# Beamline.harmonic_rejection: detuned 50%
# Facility.name: APS
# Facility.energy: 7.00 GeV
# Facility.xray_source: APS bending magnet
# Detector.I0: N2 15cm
# Detector.I1: N2 15cm
# Element.edge: K
# Element.symbol: Fe
# Mono.d_spacing: 3.13550
# Mono.name: Si(111)
# Mono.notes: unfocussed, detuned 50%
# Sample.formula: Fe
# Sample.name: Fe metal  Room Temperature
# Sample.prep: standard foil (Joe Wong boxed set)
# Sample.reference: none
# Sample.temperature: Room Temperature
# Scan.edge_energy: 7112.
# Scan.start_time: 2002-03-16 14:18:25
# ///
#    Note: mono d_spacing is nominal!
#     Energy drive values recorded (encoder used, not recorded)
#     348 E XMU I0
#-------------
#   energy   i0   itrans
    6962  304130  276384
    6982  306236  284051
    7002  306230  289768
    7022  306056  295290
    7042  306258  301272
    7062  306012  306648
    7082  305934  311244
    7092.5  305588  312248
    7093.5  305538  312101
    7094.5  305488  311938
    7095.5  305460  312040
    7096.5  305332  312035
    7097.5  305330  311714
    7098.5  305244  311466
    7099.5  305172  311055
    7100.5  305154  310682
    7101.5  305144  310179
    7102.5  305014  309510
    7103.5  304990  308596
    7104.5  304972  307469
    7105.5  304932  305995
    7106.5  304864  303619
    7107.5  304834  300258
    7108.5  304816  294210
    7109.5  305162  281522
    7110.5  306222  243698
    7111.5  306212  182318
    7112.5  306188  148118
    7113.5  306140  128948
    7114.5  306120  116688
    7115.5  306002  112197
    7116.5  305382  107610
    7117.5  306368  94608.1
    7118.5  306028  77019.1
    7119.5  305826  61711.1
    7120.5  305798  48621.1
    7121.5  305720  39615.1
    7122.5  305658  34159.1
    7123.5  305610  30349.1
    7124.5  305584  27616.1
    7125.5  305628  25318.1
    7126.5  305470  23050.1
    7127.5  305426  20479.1
    7128.5  305400  17866.1
    7129.5  305372  15735.1
    7130.5  305270  14698.1
    7131.5  305278  15330.1
    7132.88  305226  17839.1
    7134.71  305188  21168.1
    7136.61  305196  22244.1
    7138.58  305076  21109.1
    7140.63  304998  19760.1
    7142.76  304934  19999.1
    7144.97  304896  20144.1
    7147.25  304898  18545.1
    7149.61  304862  16871.1
    7152.04  306050  16279.1
    7154.55  306208  16288.1
    7157.14  306202  16794.1
    7159.8  306138  16912.1
    7162.54  306100  17262.1
    7165.35  305964  17816.1
    7168.25  305902  18211.1
    7171.21  304892  18891.1
    7174.26  305946  20486.1
    7177.38  305716  22435.1
    7180.57  305728  23320.1
    7183.85  305706  22774.1
    7187.2  305698  21164.1
    7190.62  305568  19280.1
    7194.13  305638  18077.1
    7197.7  305500  19079.1
    7201.36  305494  21487.1
    7205.09  305402  24388.1
    7208.9  305358  24649.1
    7212.78  305284  19918.1
    7216.74  305268  15026.1
    7220.78  305208  13529.1
    7224.89  305178  15626.1
    7229.08  305134  19958.1
    7233.34  305012  24850.1
    7237.69  304990  27485.1
    7242.1  304918  26720.1
    7246.6  305000  24688.1
    7251.17  304848  24355.1
    7255.81  304774  25454.1
    7260.54  305562  24940.1
    7265.34  306032  23971.1
    7270.21  306540  22659.1
    7275.16  306170  21034.1
    7280.19  306096  20279.1
    7285.3  306000  19085.1
    7290.48  305956  19281.1
    7295.73  305938  22410.1
    7301.07  305756  25819.1
    7306.48  306864  28036.1
    7311.96  305750  28401.1
    7317.53  305778  28529.1
    7323.16  305642  28791.1
    7328.88  305564  28964.1
    7334.67  305574  29969.1
    7340.54  305534  30272.1
    7346.48  305532  28244.1
    7352.5  305380  25906.1
    7358.6  305374  24267.1
    7364.77  305346  23465.1
    7371.02  305298  24388.1
    7377.35  305186  28030.1
    7383.75  305144  32665.1
    7390.23  305142  33628.1
    7396.78  305064  32805.1
    7403.41  304996  32883.1
    7410.12  304922  32928.1
    7416.9  305526  33142.1
    7423.76  304572  33941.1
    7430.7  304848  34620.1
    7437.71  305608  34268.1
    7444.8  306258  32871.1
    7451.96  306312  32014.1
    7459.2  306214  32328.1
    7466.52  306174  33433.1
    7473.91  306058  35335.1
    7481.39  306012  36830.1
    7488.93  305996  38614.1
    7496.55  305910  39682.1
    7504.25  305080  39377.1
    7512.03  305960  39660.1
    7519.88  305728  40208.1
    7527.81  305764  40407.1
    7535.81  305652  40553.1
    7543.89  305730  41187.1
    7552.05  305610  41453.1
    7560.28  305576  41057.1
    7568.59  305474  41259.1
    7576.98  305446  42701.1
    7585.44  305462  44318.1
    7593.98  305488  45196.1
    7602.59  305338  45608.1
    7611.28  305318  46576.1
    7620.05  305194  47223.1
    7628.89  305116  47442.1
    7637.81  305168  48484.1
    7646.81  305010  49621.1
    7655.88  304862  50297.1
    7665.03  306822  50989.1
    7674.26  304834  50750.1
    7683.56  305798  51161.1
    7692.94  306320  52164.1
    7702.39  306270  53224.1
    7711.92  306162  54266.1
    7721.52  306104  55372.1
    7731.21  306078  56154.1
    7740.97  309812  57638.1
    7750.8  305928  57750.1
    7760.72  305892  58644.1
    7770.7  305978  59693.1
    7780.77  306116  60789.1
    7790.91  305726  61613.1
    7801.12  305708  62331.1
    7811.42  305610  63032.1
    7821.79  305596  63830.1
    7832.23  305982  64732.1
    7842.76  305548  65550.1
    7853.35  305518  66502.1
    7864.03  305408  67609.1
    7874.78  305402  68825.1
    7885.61  305342  69966.1
    7896.51  305210  71057.1
    7907.49  305314  72219.1
    7918.55  305068  73222.1
    7929.68  305106  74326.1
    7940.89  304758  75196.1
    7952.18  304972  76276.1
    7963.54  304902  77322.1
    7969.25  305048  77854.1