File: data/Fe/Fe_metal_rt_02.xdi
# XDI/1.0
# Column.1: energy eV
# Column.2: i0
# Column.3: itrans
# Beamline.name: APS 20-BM-B
# Beamline.notes: vert slits = unknown
# Detector.I0: N2 15cm
# Detector.I1: N2 15cm
# Element.edge: K
# Element.symbol: Fe
# Mono.d_spacing: 3.13550
# Mono.name: Si(111)
# Mono.notes: unfocussed, detuned 50%
# Sample.formula: Fe
# Sample.name: Fe foil  Room Temperature
# Sample.prep: foil
# Sample.reference: none
# Sample.temperature: Room Temperature
# Scan.start_time: 2001-08-09 14:04:00
# ///
#    Note: mono d_spacing is nominal!
#     data from NXS school, 2001
#     412 E XMU I0
#-------------
#   energy   i0   itrans
    6913.79  408448  478167
    6923.73  405265  477148
    6933.87  329201  389574
    6943.9  414839  493888
    6953.97  412792  494180
    6963.88  412135  495951
    6973.83  411702  498062
    6983.75  411374  500321
    6993.86  411035  502584
    7003.9  410914  505072
    7013.84  410811  507480
    7023.87  410554  509743
    7033.71  410385  511999
    7043.8  410311  514354
    7053.9  410141  516464
    7063.74  409802  518119
    7073.6  409470  519461
    7083.63  408807  519795
    7093.58  406972  516704
    7103.46  404177  505743
    7104.38  411665  513581
    7105.05  412236  512647
    7105.86  412133  509940
    7106.64  411948  506543
    7107.33  411647  502688
    7108.26  411317  495663
    7109.06  411144  486929
    7109.74  410921  471180
    7110.67  410775  430590
    7111.34  410740  356137
    7112.22  410356  264713
    7113.05  410106  224365
    7113.69  409924  201228
    7114.56  409782  178799
    7115.29  409736  167811
    7116.08  409701  162702
    7116.96  409531  156931
    7117.69  409493  145505
    7118.5  409400  121167
    7119.35  409365  99158.8
    7120.01  409278  82851.8
    7120.92  408989  64874.8
    7121.74  408835  54209.8
    7122.38  408773  47087.8
    7123.28  408648  41254.8
    7123.95  408644  37595.8
    7124.8  408464  34232.8
    7125.64  408381  31573.8
    7126.34  408225  29574.8
    7127.22  408108  26671.8
    7128.02  407711  24002.8
    7128.72  407470  21370.8
    7129.62  407604  18643.8
    7130.38  407620  17067.8
    7131.11  407359  16383.8
    7131.94  407266  17051.8
    7132.6  407194  18510.8
    7133.54  407053  20985.8
    7134.31  407097  22971.8
    7135.01  407031  24475.8
    7135.92  407056  25799.8
    7136.68  406975  26227.8
    7137.46  406870  26125.8
    7138.3  406849  25517.8
    7139.01  406845  24789.8
    7139.8  406714  23782.8
    7140.62  406598  23111.8
    7141.27  406666  22791.8
    7142.21  406666  22792.8
    7142.96  406651  23029.8
    7143.71  406588  23312.8
    7144.58  406432  23477.8
    7145.29  406510  23362.8
    7146.13  406464  22821.8
    7146.94  406541  22034.8
    7147.63  406447  21252.8
    7148.99  408480  19766.3
    7151.34  412248  18661.6
    7153.79  415988  18342
    7156.2  419580  18969.3
    7158.81  423266  19532.3
    7161.54  426903  19892.9
    7164.22  430294  20759.9
    7166.94  433504  21492
    7169.96  436705  22264.3
    7172.84  439880  23895.5
    7175.82  443024  26589.5
    7179.03  445955  29141.2
    7182.09  448789  29509.5
    7185.43  421845  26398.3
    7188.77  455071  25817.5
    7192.18  458092  23282
    7195.82  461031  22997.7
    7199.25  463991  25529.5
    7203.03  466658  29744.5
    7206.82  469363  33430.4
    7210.52  471533  30600.2
    7214.54  474582  22214.9
    7218.5  477297  17276.4
    7222.69  479823  17601.7
    7226.8  482680  22439.6
    7231.05  485132  29832.2
    7235.29  487699  36365.3
    7239.68  491354  38026
    7244.18  489048  35010.2
    7248.71  493438  33010.9
    7253.41  496151  34327
    7258.14  498558  35033.4
    7262.84  500752  33366.2
    7267.72  502719  31963.2
    7272.57  504821  29213.6
    7277.55  506378  27878.1
    7282.56  508258  26287.9
    7287.82  508387  24974.8
    7292.98  514509  28163.9
    7298.25  467182  30567.1
    7303.69  517095  38277.3
    7309.05  519422  40177.7
    7314.67  521389  40268
    7320.19  517684  40301.4
    7325.94  524903  41031.8
    7331.67  521842  41689.1
    7337.43  529044  43661.4
    7343.28  530667  41986.5
    7349.3  518647  36936.6
    7355.22  533833  34942.6
    7361.45  535653  32921.5
    7367.67  537836  33088.1
    7373.84  538262  36700.7
    7380.21  540622  44461
    7386.71  544047  49265.1
    7393.15  544791  48328
    7399.72  546215  47760.7
    7406.31  547973  48054.1
    7412.98  549616  47981.3
    7419.76  551234  48722.1
    7426.66  552846  50551.7
    7433.68  551244  50274
    7440.6  552878  48520.9
    7447.69  555891  46400.6
    7454.85  557743  46185.8
    7462.13  559269  47118.8
    7469.35  560758  49778.3
    7476.72  562274  52642.5
    7484.32  563801  55176.3
    7491.9  565449  57893.7
    7499.51  566700  58303.7
    7507.06  567991  57944.3
    7514.79  569266  58638.4
    7522.75  570262  59274.1
    7530.62  571505  59247.4
    7538.52  572508  59841.1
    7546.67  569862  60334.5
    7554.68  575813  60659.3
    7562.77  577183  60037.7
    7571.18  578214  61143.6
    7579.37  579310  63853
    7587.87  580613  66077.9
    7596.28  581298  66815.3
    7604.82  582266  67624.1
    7613.27  583431  69217.5
    7622.05  584763  69755.3
    7630.69  585816  70344.5
    7639.64  585879  72004.2
    7648.5  588274  73750.4
    7657.56  589003  74567.9
    7666.87  589691  74748
    7676.05  590450  74757.4
    7685.53  591734  75364.3
    7695.06  592936  76948.6
    7704.57  593255  78339.3
    7714.09  594292  80049.4
    7723.89  594926  81559.9
    7733.73  596188  82585.8
    7743.6  596722  83745.1
    7753.53  597596  84766.7
    7763.51  598636  86228.8
    7773.52  599390  87880.2
    7783.6  599993  89193
    7793.81  600848  90365.1
    7804.12  601474  91239.6
    7814.42  602076  92119.5
    7824.84  602730  93230.7
    7835.28  603397  94358.3
    7845.88  603800  95592.2
    7856.52  604700  97002.4
    7867.22  605115  98586
    7878  607076  100456
    7888.78  606994  101889
    7899.7  607130  103279
    7910.69  607500  104776
    7921.81  607976  106204
    7932.92  608330  107565
    7944.11  608639  108686
    7955.35  609784  110093
    7966.58  607998  111026
    7978.13  610866  112697
    7989.7  611022  114116
    8001.21  611127  115555
    8012.77  611526  117134
    8024.5  612107  118801
    8036.27  612266  120420
    8048.03  612487  122099
    8059.73  612584  123789
    8071.84  612355  125435
    8083.78  613343  127212
    8085.79  613265  127396