File: data/Fe/FeN_rt_01.xdi
# XDI/1.0
# Column.1: energy eV
# Column.2: i0
# Column.3: itrans
# Beamline.name: APS 13-BM-D
# Beamline.notes: vert slits = 2mm (at 45m)
# Beamline.collimation: none
# Beamline.focusing: no
# Beamline.harmonic_rejection: detuned 50%
# Facility.name: APS
# Facility.energy: 7.00 GeV
# Facility.xray_source: APS bending magnet
# Detector.I0: N2 15cm
# Detector.I1: N2 15cm
# Element.edge: K
# Element.symbol: Fe
# Mono.d_spacing: 3.13550
# Mono.name: Si(111)
# Mono.notes: unfocussed, detuned 50%
# Sample.formula: FeN
# Sample.name: FeN powder  Room Temperature
# Sample.prep: powder on tape, 5 layers
# Sample.reference: none
# Sample.temperature: Room Temperature
# Scan.edge_energy: 7112.
# Scan.start_time: 2002-03-16 17:50:01
# ///
#    Note: mono d_spacing is nominal!
#     Energy drive values recorded (encoder used, not recorded)
#-------------
#   energy   i0   itrans
    6962  302897  449400
    6982  304504  465295
    7002  304407  478974
    7022  304358  492233
    7042  304549  506340
    7062  304266  518209
    7082  304163  529047
    7092.5  303770  530370
    7093.5  303717  530141
    7094.5  303632  530157
    7095.5  303530  529634
    7096.5  303490  528723
    7097.5  303534  528621
    7098.5  303466  527585
    7099.5  303521  526885
    7100.5  303347  525698
    7101.5  303315  523937
    7102.5  303348  522227
    7103.5  303205  519820
    7104.5  303044  516572
    7105.5  304831  515116
    7106.5  305012  510297
    7107.5  304889  502272
    7108.5  304901  488742
    7109.5  304782  460370
    7110.5  304785  387710
    7111.5  304759  280954
    7112.5  304670  229475
    7113.5  304652  192165
    7114.5  304610  153149
    7115.5  304525  128653
    7116.5  303962  115186
    7117.5  305040  104163
    7118.5  304552  90639.2
    7119.5  304389  76508.2
    7120.5  304379  64177.2
    7121.5  304335  54792.2
    7122.5  304268  47610.2
    7123.5  304159  42009.2
    7124.5  304114  37827.2
    7125.5  304125  34096.2
    7126.5  304057  30718.2
    7127.5  303931  27872.2
    7128.5  303910  25380.2
    7129.5  303830  23857.2
    7130.5  303797  23058.2
    7131.5  303795  22953.2
    7132.88  303791  23543.2
    7134.71  303692  25607.2
    7136.61  303722  27329.2
    7138.58  303675  28970.2
    7140.63  304507  30057.2
    7142.76  305522  30577.2
    7144.97  305633  29908.2
    7147.25  305632  28381.2
    7149.61  305436  27056.2
    7152.04  305420  26734.2
    7154.55  305290  27660.2
    7157.14  305340  29302.2
    7159.8  305286  31019.2
    7162.54  305191  32892.2
    7165.35  305144  34759.2
    7168.25  305092  35796.2
    7171.21  304057  35826.2
    7174.26  305038  34800.2
    7177.38  304990  33596.2
    7180.57  304909  32075.2
    7183.85  304866  30388.2
    7187.2  304851  29023.2
    7190.62  304713  28036.2
    7194.13  304690  27559.2
    7197.7  304644  27843.2
    7201.36  304640  29120.2
    7205.09  304485  30933.2
    7208.9  304497  32601.2
    7212.78  304468  34210.2
    7216.74  304386  35254.2
    7220.78  304327  35412.2
    7224.89  304331  34961.2
    7229.08  304267  34490.2
    7233.34  304169  34543.2
    7237.69  304142  34542.2
    7242.1  305709  34117.2
    7246.6  306136  32822.2
    7251.17  305912  32063.2
    7255.81  305898  32139.2
    7260.54  305838  33267.2
    7265.34  305466  35391.2
    7270.21  306044  37510.2
    7275.16  305695  38667.2
    7280.19  305615  38309.2
    7285.3  305660  37821.2
    7290.48  305575  37831.2
    7295.73  305501  37984.2
    7301.07  305356  37931.2
    7306.48  306218  37839.2
    7311.96  305302  37287.2
    7317.53  305302  36741.2
    7323.16  305311  36971.2
    7328.88  305208  38006.2
    7334.67  305109  39803.2
    7340.54  305101  41522.2
    7346.48  305093  42751.2
    7352.5  304960  43217.2
    7358.6  304917  43285.2
    7364.77  304879  43264.2
    7371.02  304889  43015.2
    7377.35  304853  43096.2
    7383.75  304737  43345.2
    7390.23  304726  43643.2
    7396.78  304609  43949.2
    7403.41  304586  44361.2
    7410.12  305940  45137.2
    7416.9  307099  46263.2
    7423.76  306110  46680.2
    7430.7  306243  47549.2
    7437.71  306170  48514.2
    7444.8  306218  49432.2
    7451.96  306157  50186.2
    7459.2  306188  50633.2
    7466.52  306048  50904.2
    7473.91  305941  51220.2
    7481.39  305907  51489.2
    7488.93  305867  51849.2
    7496.55  305808  52402.2
    7504.25  304741  53186.2
    7512.03  305741  54284.2
    7519.88  305694  55162.2
    7527.81  305708  55879.2
    7535.81  305616  56661.2
    7543.89  305526  57352.2
    7552.05  305524  58146.2
    7560.28  305455  58795.2
    7568.59  305447  59315.2
    7576.98  305392  59938.2
    7585.44  305357  60688.2
    7593.98  305404  61658.2
    7602.59  305231  62492.2
    7611.28  305283  63463.2
    7620.05  305130  64352.2
    7628.89  305104  65229.2
    7637.81  305008  65987.2
    7646.81  304883  66966.2
    7655.88  304806  67892.2
    7665.03  306243  69271.2
    7674.26  304699  69758.2
    7683.56  304924  70643.2
    7692.94  304632  71554.2
    7702.39  304543  72371.2
    7711.92  304561  73242.2
    7721.52  304457  74090.2
    7731.21  304304  75135.2
    7740.97  308151  77412.2
    7750.8  304211  77306.2
    7760.72  304277  78552.2
    7770.7  304240  79746.2
    7780.77  304528  80999.2
    7790.91  304128  81985.2
    7801.12  304066  83137.2
    7811.42  304032  84367.2
    7821.79  304032  85391.2
    7832.23  304424  86741.2
    7842.76  303856  87770.2
    7853.35  303790  88978.2
    7864.03  303958  90231.2
    7874.78  303759  91520.2
    7885.61  303702  92829.2
    7896.51  303582  93993.2
    7907.49  303648  95371.2
    7918.55  303505  96742.2
    7929.68  303479  98201.2
    7940.89  303080  99486.2
    7952.18  304196  101216
    7963.54  304098  102846
    7969.25  304239  103714