File: data/Fe/fen_rt.xdi
# XDI/1.0 GSE/1.0
# Column.1: energy eV
# Column.2: mutrans
# Column.3: i0
# Element.edge: K
# Element.symbol: Fe
# Scan.edge_energy: 7112.
# Mono.name: Si 111
# Mono.d_spacing: 3.13550
# Beamline.name: 13-BM-D
# Beamline.collimation: none
# Beamline.focusing: no
# Beamline.harmonic_rejection: detuned 50%
# Facility.name: APS
# Facility.energy: 7.00 GeV
# Facility.xray_source: APS bending magnet
# Scan.start_time: 2002-03-16T17:50:01
# Detector.I0: 15cm  N2
# Detector.I1: 15cm  N2
# Sample.name: FeN
# Sample.prep: powder on tape, 5 layers
# ///
# room temperature
# measured at beamline 13-BM-D
# vert slits = 2mm (at 45m)
#----
#   energy       mutrans            i0
  6962      -0.39452        302897.20
  6982      -0.423987        304504.20
  7002      -0.45328        304407.20
  7022      -0.480747        304358.20
  7042      -0.508376        304549.20
  7062      -0.532476        304266.20
  7082      -0.553513        304163.20
  7092.5      -0.557304        303770.20
  7093.5      -0.557046        303717.20
  7094.5      -0.557356        303632.20
  7095.5      -0.556705        303530.20
  7096.5      -0.555116        303490.20
  7097.5      -0.554778        303534.20
  7098.5      -0.55304        303466.20
  7099.5      -0.551531        303521.20
  7100.5      -0.549849        303347.20
  7101.5      -0.546599        303315.20
  7102.5      -0.543221        303348.20
  7103.5      -0.539073        303205.20
  7104.5      -0.533336        303044.20
  7105.5      -0.524634        304831.20
  7106.5      -0.514642        305012.20
  7107.5      -0.499194        304889.20
  7108.5      -0.471847        304901.20
  7109.5      -0.412434        304782.20
  7110.5      -0.240651        304785.20
  7111.5       0.0813303    304759.20
  7112.5       0.283435        304670.20
  7113.5       0.460815        304652.20
  7114.5       0.68762        304610.20
  7115.5       0.861633        304525.20
  7116.5       0.970353        303962.20
  7117.5        1.07448        305040.20
  7118.5        1.21196        304552.20
  7119.5        1.38091        304389.20
  7120.5        1.55663        304379.20
  7121.5        1.71458        304335.20
  7122.5        1.85486        304268.20
  7123.5        1.97966        304159.20
  7124.5        2.08437        304114.20
  7125.5        2.18825        304125.20
  7126.5        2.29236        304057.20
  7127.5        2.38917        303931.20
  7128.5        2.48276        303910.20
  7129.5        2.54438        303830.20
  7130.5        2.57834        303797.20
  7131.5        2.5829        303795.20
  7132.88        2.5575        303791.20
  7134.71        2.47314        303692.20
  7136.61        2.40816        303722.20
  7138.58        2.34969        303675.20
  7140.63        2.31559        304507.20
  7142.76        2.30177        305522.20
  7144.97        2.32425        305633.20
  7147.25        2.37666        305632.20
  7149.61        2.42382        305436.20
  7152.04        2.43574        305420.20
  7154.55        2.40127        305290.20
  7157.14        2.34376        305340.20
  7159.8        2.28664        305286.20
  7162.54        2.2277        305191.20
  7165.35        2.17234        305144.20
  7168.25        2.14277        305092.20
  7171.21        2.13854        304057.20
  7174.26        2.17081        305038.20
  7177.38        2.20587        304990.20
  7180.57        2.25193        304909.20
  7183.85        2.30582        304866.20
  7187.2        2.35173        304851.20
  7190.62        2.38587        304713.20
  7194.13        2.40296        304690.20
  7197.7        2.39256        304644.20
  7201.36        2.3477        304640.20
  7205.09        2.28679        304485.20
  7208.9        2.23431        304497.20
  7212.78        2.18604        304468.20
  7216.74        2.15571        304386.20
  7220.78        2.15105        304327.20
  7224.89        2.16388        304331.20
  7229.08        2.17723        304267.20
  7233.34        2.17537        304169.20
  7237.69        2.17531        304142.20
  7242.1        2.19283        305709.20
  7246.6        2.23292        306136.20
  7251.17        2.25559        305912.20
  7255.81        2.25318        305898.20
  7260.54        2.21848        305838.20
  7265.34        2.15538        305466.20
  7270.21        2.09912        306044.20
  7275.16        2.0676        305695.20
  7280.19        2.07664        305615.20
  7285.3        2.0896        305660.20
  7290.48        2.08906        305575.20
  7295.73        2.08478        305501.20
  7301.07        2.0857        305356.20
  7306.48        2.09095        306218.20
  7311.96        2.10265        305302.20
  7317.53        2.1174        305302.20
  7323.16        2.11119        305311.20
  7328.88        2.08324        305208.20
  7334.67        2.03672        305109.20
  7340.54        1.99442        305101.20
  7346.48        1.96522        305093.20
  7352.5        1.95394        304960.20
  7358.6        1.95223        304917.20
  7364.77        1.95259        304879.20
  7371.02        1.95839        304889.20
  7377.35        1.9564        304853.20
  7383.75        1.95025        304737.20
  7390.23        1.94337        304726.20
  7396.78        1.936        304609.20
  7403.41        1.92659        304586.20
  7410.12        1.91368        305940.20
  7416.9        1.89282        307099.20
  7423.76        1.88063        306110.20
  7430.7        1.86261        306243.20
  7437.71        1.84228        306170.20
  7444.8        1.8237        306218.20
  7451.96        1.80836        306157.20
  7459.2        1.79959        306188.20
  7466.52        1.7938        306048.20
  7473.91        1.78726        305941.20
  7481.39        1.78191        305907.20
  7488.93        1.77481        305867.20
  7496.55        1.76401        305808.20
  7504.25        1.74566        304741.20
  7512.03        1.72851        305741.20
  7519.88        1.71231        305694.20
  7527.81        1.69944        305708.20
  7535.81        1.68524        305616.20
  7543.89        1.67282        305526.20
  7552.05        1.65907        305524.20
  7560.28        1.64774        305455.20
  7568.59        1.63891        305447.20
  7576.98        1.62828        305392.20
  7585.44        1.61573        305357.20
  7593.98        1.60003        305404.20
  7602.59        1.58603        305231.20
  7611.28        1.57078        305283.20
  7620.05        1.55637        305130.20
  7628.89        1.54275        305104.20
  7637.81        1.53088        305008.20
  7646.81        1.51574        304883.20
  7655.88        1.50175        304806.20
  7665.03        1.48635        306243.20
  7674.26        1.47429        304699.20
  7683.56        1.46242        304924.20
  7692.94        1.44865        304632.20
  7702.39        1.437        304543.20
  7711.92        1.4251        304561.20
  7721.52        1.41325        304457.20
  7731.21        1.39874        304304.20
  7740.97        1.38145        308151.20
  7750.8        1.36995        304211.20
  7760.72        1.35418        304277.20
  7770.7        1.33897        304240.20
  7780.77        1.32432        304528.20
  7790.91        1.31091        304128.20
  7801.12        1.29675        304066.20
  7811.42        1.28195        304032.20
  7821.79        1.26989        304032.20
  7832.23        1.25549        304424.20
  7842.76        1.24183        303856.20
  7853.35        1.22795        303790.20
  7864.03        1.21451        303958.20
  7874.78        1.19968        303759.20
  7885.61        1.18529        303702.20
  7896.51        1.17243        303582.20
  7907.49        1.15809        303648.20
  7918.55        1.14335        303505.20
  7929.68        1.12829        303479.20
  7940.89        1.11398        303080.20
  7952.18        1.10041        304196.20
  7963.54        1.08412        304098.20
  7969.25        1.07618        304239.20