File: data/Fe/FeO_rt_01.xdi
# XDI/1.0
# Column.1: energy eV
# Column.2: i0
# Column.3: itrans
# Beamline.name: APS 20-BM
# Beamline.notes: vert slits = unknown
# Detector.I0: N2 15cm
# Detector.I1: N2 15cm
# Element.edge: K
# Element.symbol: Fe
# Mono.d_spacing: 3.13550
# Mono.name: Si(111)
# Mono.notes: unfocussed, detuned 50%
# Sample.formula: FeO
# Sample.name: FeO powder  Room Temperature
# Sample.prep: powder on tape, 4 layers
# Sample.reference: none
# Sample.temperature: Room Temperature
# Scan.start_time: 2001-08-10 11:10:00
# ///
#    Note: mono d_spacing is nominal!
#     data from NXS school, 2001
#     412 E XMU I0
#-------------
#   energy   i0   itrans
    6911.77  280101  290366
    6921.7  278149  290136
    6931.74  265707  278595
    6941.79  285989  301961
    6951.92  284411  302120
    6961.96  283824  303265
    6971.92  283397  304638
    6981.99  283214  306229
    6991.93  282971  307721
    7001.85  282885  309435
    7011.84  282732  311023
    7021.87  282484  312561
    7031.97  282225  314010
    7041.9  282087  315530
    7051.83  282011  317160
    7061.84  281847  318600
    7071.81  281634  319901
    7081.69  281309  320876
    7091.53  280416  320763
    7101.57  240033  275002
    7102.28  257073  295257
    7103.19  279482  319436
    7104  283089  322984
    7104.62  283337  323013
    7105.52  283327  322572
    7106.24  283187  321923
    7107.06  283049  321220
    7107.94  282903  320311
    7108.6  282677  319226
    7109.51  282510  317071
    7110.28  282346  312986
    7111.01  282210  306109
    7111.92  282115  299642
    7112.67  281994  295744
    7113.38  281871  291801
    7114.25  281778  288513
    7114.9  281840  282531
    7115.81  281660  269041
    7116.67  281567  252213
    7117.26  281547  232641
    7118.24  281500  201490
    7118.97  281469  176633
    7119.77  281425  155078
    7120.64  281376  137638
    7121.32  281224  124691
    7122.1  281217  106623
    7122.93  281186  88855.2
    7123.59  281139  76126.2
    7124.54  281092  66014.2
    7125.34  281108  61151.2
    7125.99  281001  56427.2
    7126.97  280979  49908.2
    7127.63  280685  45666.2
    7128.51  280587  44137.2
    7129.36  280602  47220.2
    7129.98  280588  52250.2
    7130.85  280368  60901.2
    7131.61  280324  68116.2
    7132.33  280358  73781.2
    7133.25  280340  78639.2
    7134.01  280338  81455.2
    7134.77  280376  84493.2
    7135.68  280380  87382.2
    7136.31  280310  89385.2
    7137.23  280348  91158.2
    7138.05  280265  91596.2
    7138.68  280231  91135.2
    7139.59  280226  89172.2
    7140.3  280225  86871.2
    7141.1  280261  84138.2
    7141.97  280277  82322.2
    7142.68  280215  81859.2
    7143.5  280148  82681.2
    7144.37  280259  84631.2
    7145.01  280209  86716.2
    7145.93  280171  89686.2
    7147.13  281607  93749.1
    7149.48  284295  99864.4
    7151.97  286899  103420
    7154.54  289438  105483
    7157.06  291973  105466
    7159.68  294405  103783
    7162.38  296860  101657
    7165.24  299144  96455
    7168.13  301311  88956.8
    7171.05  303496  84143
    7174.16  305728  82910.7
    7177.21  307837  84982.7
    7180.55  309864  90369
    7183.68  310947  95184.5
    7187.23  313205  99755.3
    7190.59  316212  104251
    7194.16  318317  107389
    7197.85  320242  107710
    7201.35  322266  106610
    7205.35  324151  106428
    7209.15  325885  107485
    7213.07  327663  107680
    7217.07  329533  106548
    7221.2  331416  105660
    7225.45  333202  107602
    7229.69  334967  111554
    7234.08  336864  116076
    7238.49  338887  118286
    7243.02  335643  114705
    7247.52  338137  112540
    7252.23  342507  113497
    7256.89  344217  114896
    7261.66  345766  115437
    7266.39  347433  115488
    7271.37  348895  116002
    7276.51  349789  117644
    7281.49  351365  120790
    7286.68  352112  124601
    7291.9  350984  127509
    7297.36  355658  130613
    7302.57  357608  130745
    7308.1  358970  129742
    7313.65  360320  129013
    7319.17  361473  129149
    7325.02  363008  130082
    7330.6  363832  131253
    7336.42  365954  133359
    7342.4  366602  135263
    7348.29  367739  137268
    7354.38  369536  139080
    7360.5  370776  140490
    7366.71  371864  142068
    7372.99  370256  142496
    7379.47  374052  144572
    7385.67  363252  140764
    7392.25  376942  146240
    7398.92  377900  147152
    7405.55  378947  148674
    7412.29  380039  150727
    7419.01  381177  153026
    7425.93  382146  154865
    7432.83  383357  156330
    7439.77  382052  156641
    7446.93  384549  158491
    7454.19  385779  159627
    7461.4  386959  160648
    7468.74  388016  161783
    7476.02  389021  163193
    7483.61  390137  164930
    7491.05  390942  166941
    7498.51  391929  168997
    7506.25  392869  170738
    7514.07  393787  172192
    7521.94  394611  173640
    7529.65  395401  175119
    7537.68  396150  176598
    7545.75  395707  177484
    7553.58  398843  179841
    7561.93  399600  181267
    7570.21  400320  182699
    7578.46  401116  184411
    7586.9  401801  186147
    7595.2  402537  187865
    7603.82  403450  189677
    7612.29  404235  191391
    7621.03  404951  193094
    7629.76  403381  193644
    7638.57  405550  195935
    7647.68  407117  197998
    7656.71  407801  199640
    7665.92  408571  201354
    7675.25  409370  203243
    7684.6  409950  204991
    7693.97  410693  206880
    7703.62  411286  208684
    7713.27  411934  210569
    7722.96  412581  212374
    7732.58  413055  214139
    7742.52  413632  215946
    7752.52  414322  217732
    7762.54  414763  219531
    7772.63  415498  221524
    7782.72  415908  223359
    7792.83  416358  225225
    7803.02  416880  227106
    7813.3  417389  229033
    7823.65  417789  230940
    7834.1  418265  232857
    7844.66  418616  234695
    7855.29  418979  236620
    7866.02  419648  238671
    7876.79  420799  241023
    7887.59  420577  242628
    7898.5  420822  244523
    7909.39  421114  246428
    7920.37  421607  248436
    7931.38  421911  250431
    7942.46  422302  252385
    7953.75  418065  251443
    7965.18  422593  256150
    7976.62  414640  253194
    7988.09  423691  260482
    7999.48  423865  262405
    8011.17  424291  264565
    8023.01  424529  266632
    8034.68  424581  268624
    8046.4  424702  270586
    8058.38  424880  272675
    8070.2  423374  273603
    8082.07  425336  276831
    8084.09  425436  277186