File: data/Fe/feo_rt1.xdi
# XDI/1.0
# Column.1: energy eV
# Column.2: mutrans
# Column.3: i0
# Element.edge: K
# Element.symbol: Fe
# Scan.start_time: 2001-08-10T11:10:00
# Mono.name: Si 111
# Mono.d_spacing: 3.13553
# Beamline.name: 20BM
# Beamline.focusing: no
# Beamline.harmonic_rejection: detuned
# Detector.I0:  N2 15cm
# Detector.I1:  N2 15cm
# Sample.name: FeO
# Sample.notes: room temperature, powder on tape, 4 layers
# ///
#  data from NXS school, 2001
#------------------------
#   energy     mutrans       i0
  6911.77      -0.0359926    280101.00
  6921.7      -0.0421935    278149.00
  6931.74      -0.0473656    265707.00
  6941.79      -0.0543451    285989.00
  6951.92      -0.0604045    284411.00
  6961.96      -0.0662533    283824.00
  6971.92      -0.0722761    283397.00
  6981.99      -0.078131    283214.00
  6991.93      -0.0838497    282971.00
  7001.85      -0.0897082    282885.00
  7011.84      -0.095368    282732.00
  7021.87      -0.101178        282484.00
  7031.97      -0.106721        282225.00
  7041.9      -0.112039        282087.00
  7051.83      -0.117461        282011.00
  7061.84      -0.122573        281847.00
  7071.81      -0.127404        281634.00
  7081.69      -0.131602        281309.00
  7091.53      -0.134429        280416.00
  7101.57      -0.136003        240033.00
  7102.28      -0.138487        257073.00
  7103.19      -0.13362        279482.00
  7104      -0.131842        283089.00
  7104.62      -0.131056        283337.00
  7105.52      -0.129725        283327.00
  7106.24      -0.128206        283187.00
  7107.06      -0.126507        283049.00
  7107.94      -0.124189        282903.00
  7108.6      -0.121595        282677.00
  7109.51      -0.115412        282510.00
  7110.28      -0.103026        282346.00
  7111.01      -0.0812904    282210.00
  7111.92      -0.0602743    282115.00
  7112.67      -0.0476091    281994.00
  7113.38      -0.0346232    281871.00
  7114.25      -0.0236213    281778.00
  7114.9      -0.00244941    281840.00
  7115.81       0.0458362    281660.00
  7116.67       0.110096        281567.00
  7117.26       0.190802        281547.00
  7118.24       0.334392        281500.00
  7118.97       0.465947        281469.00
  7119.77       0.595936        281425.00
  7120.64       0.715063        281376.00
  7121.32       0.813311        281224.00
  7122.1       0.969825        281217.00
  7122.93        1.15201        281186.00
  7123.59        1.30646        281139.00
  7124.54        1.44881        281092.00
  7125.34        1.52539        281108.00
  7125.99        1.60541        281001.00
  7126.97        1.72809        280979.00
  7127.63        1.81587        280685.00
  7128.51        1.84958        280587.00
  7129.36        1.78212        280602.00
  7129.98        1.68084        280588.00
  7130.85        1.52685        280368.00
  7131.61        1.41473        280324.00
  7132.33        1.33496        280358.00
  7133.25        1.27113        280340.00
  7134.01        1.23594        280338.00
  7134.77        1.19946        280376.00
  7135.68        1.16585        280380.00
  7136.31        1.14294        280310.00
  7137.23        1.12344        280348.00
  7138.05        1.11835        280265.00
  7138.68        1.12327        280231.00
  7139.59        1.14503        280226.00
  7140.3        1.17117        280225.00
  7141.1        1.20326        280261.00
  7141.97        1.22514        280277.00
  7142.68        1.23056        280215.00
  7143.5        1.22033        280148.00
  7144.37        1.19741        280259.00
  7145.01        1.1729        280209.00
  7145.93        1.13908        280171.00
  7147.13        1.09989        281607.47
  7149.48        1.0462        284295.16
  7151.97        1.02033        286899.06
  7154.54        1.00939        289438.03
  7157.06        1.01827        291973.00
  7159.68        1.04265        294404.84
  7162.38        1.07166        296860.50
  7165.24        1.13185        299143.88
  7168.13        1.21999        301310.91
  7171.05        1.28285        303495.50
  7174.16        1.30493        305727.59
  7177.21        1.28712        307837.12
  7180.55        1.23223        309864.06
  7183.68        1.18381        310947.31
  7187.23        1.14414        313204.84
  7190.59        1.10961        316211.62
  7194.16        1.08659        318316.56
  7197.85        1.08963        320241.66
  7201.35        1.1062        322265.88
  7205.35        1.11374        324151.12
  7209.15        1.10919        325885.44
  7213.07        1.11282        327662.72
  7217.07        1.12908        329532.97
  7221.2        1.14315        331416.12
  7225.45        1.13031        333202.22
  7229.69        1.09952        334967.16
  7234.08        1.06543        336863.97
  7238.49        1.05256        338886.59
  7243.02        1.07369        335643.00
  7247.52        1.10014        338137.22
  7252.23        1.10451        342507.16
  7256.89        1.09724        344216.84
  7261.66        1.09704        345766.25
  7266.39        1.10141        347433.34
  7271.37        1.10117        348895.09
  7276.51        1.08967        349788.53
  7281.49        1.06777        351364.59
  7286.68        1.03884        352112.28
  7291.9        1.01255        350983.59
  7297.36        1.00173        355658.47
  7302.57        1.00619        357607.94
  7308.1        1.01769        358969.97
  7313.65        1.02708        360319.56
  7319.17        1.02922        361472.69
  7325.02        1.02626        363008.34
  7330.6        1.01956        363831.53
  7336.42        1.00947        365954.19
  7342.4       0.997054        366602.38
  7348.29       0.985442        367739.03
  7354.38       0.977198        369536.16
  7360.5       0.97046        370775.72
  7366.71       0.962225        371863.75
  7372.99       0.954879        370256.25
  7379.47       0.95062        374052.16
  7385.67       0.948011        363252.47
  7392.25       0.946841        376942.25
  7398.92       0.943166        377900.41
  7405.55       0.935643        378946.97
  7412.29       0.924805        380038.91
  7419.01       0.912655        381177.25
  7425.93       0.903248        382145.97
  7432.83       0.896996        383357.03
  7439.77       0.8916        382051.50
  7446.93       0.886376        384549.31
  7454.19       0.882426        385779.47
  7461.4       0.879106        386958.97
  7468.74       0.874788        388015.81
  7476.02       0.868702        389020.97
  7483.61       0.860978        390137.47
  7491.05       0.850921        390942.31
  7498.51       0.841202        391929.44
  7506.25       0.833344        392868.88
  7514.07       0.8272        393786.62
  7521.94       0.820917        394610.69
  7529.65       0.814435        395401.03
  7537.68       0.807913        396149.66
  7545.75       0.801791        395706.59
  7553.58       0.796493        398842.81
  7561.93       0.790491        399600.28
  7570.21       0.784424        400320.03
  7578.46       0.777085        401116.06
  7586.9       0.769422        401801.34
  7595.2       0.762063        402536.91
  7603.82       0.754732        403449.69
  7612.29       0.747676        404234.75
  7621.03       0.740588        404951.06
  7629.76       0.733857        403380.62
  7638.57       0.727463        405550.41
  7647.68       0.720847        407117.44
  7656.71       0.714261        407800.69
  7665.92       0.707599        408571.19
  7675.25       0.700218        409369.94
  7684.6       0.693068        409949.88
  7693.97       0.685707        410693.03
  7703.62       0.678469        411286.44
  7713.27       0.67105        411934.03
  7722.96       0.664082        412580.88
  7732.58       0.656956        413054.88
  7742.52       0.649946        413632.12
  7752.52       0.643376        414321.56
  7762.54       0.636212        414763.22
  7772.63       0.628948        415498.06
  7782.72       0.621683        415908.09
  7792.83       0.614447        416358.31
  7803.02       0.607382        416879.75
  7813.3       0.600155        417389.38
  7823.65       0.59282        417789.16
  7834.1       0.58569        418265.16
  7844.66       0.578669        418616.31
  7855.29       0.571363        418978.69
  7866.02       0.56433        419648.19
  7876.79       0.557262        420798.91
  7887.59       0.550096        420576.78
  7898.5       0.542901        420821.84
  7909.39       0.535833        421114.06
  7920.37       0.52889        421607.44
  7931.38       0.521612        421911.00
  7942.46       0.514766        422301.69
  7953.75       0.508421        418064.59
  7965.18       0.500645        422592.62
  7976.62       0.493253        414639.81
  7988.09       0.486471        423691.16
  7999.48       0.479526        423864.66
  8011.17       0.472332        424291.34
  8023.01       0.46511        424529.16
  8034.68       0.457792        424581.09
  8046.4       0.450799        424702.22
  8058.38       0.443526        424880.47
  8070.2       0.436578        423373.88
  8082.07       0.429472        425336.41
  8084.09       0.428428        425436.22