File: data/Fe/FeS2_rt_01.xdi
# XDI/1.0
# Column.1: energy eV
# Column.2: i0
# Column.3: itrans
# Beamline.name: APS 13-BM-D
# Beamline.notes: vert slits = 2mm (at 45m)
# Detector.I0: N2 15cm
# Detector.I1: N2 15cm
# Element.edge: K
# Element.symbol: Fe
# Mono.d_spacing: 3.13550
# Mono.name: Si(111)
# Mono.notes: unfocussed, detuned 50%
# Sample.formula: FeS2
# Sample.name: FeS2 powder  Room Temperature
# Sample.prep: powder on tape, 4 layers
# Sample.reference: none
# Sample.temperature: Room Temperature
# Scan.start_time: 2002-03-16 15:13:22
# ///
#    Note: mono d_spacing is nominal!
#     Energy drive values recorded (encoder used, not recorded)
#     348 E XMU I0
#-------------
#   energy   i0   itrans
    6911.83  272002  121091
    6921.76  268827  120841
    6931.79  255214  115822
    6972  306445  141215
    6992  306744  144906
    7012  306358  148490
    7032  306019  151960
    7052  306124  155959
    7072  306119  159772
    7092  306098  163311
    7093  305756  163253
    7094  305717  163415
    7095  305666  163527
    7096  305585  163579
    7097  305539  163817
    7098  305466  163909
    7099  305432  164022
    7100  305402  164094
    7101  305391  164216
    7102  305952  164696
    7103  304860  164105
    7104  305180  164427
    7105  305144  164389
    7106  304943  164227
    7107  305023  164341
    7108  305117  164094
    7109  304852  163536
    7110  305214  162506
    7111  304668  158488
    7112  304804  153701
    7113  304700  152857
    7114  304907  153498
    7115  305540  152722
    7116  306100  143913
    7117  306536  122285
    7118  306741  106129
    7119  306428  96077.4
    7120  306450  93797.4
    7121  306359  96690.4
    7122  306349  97250.4
    7123  306266  96290.4
    7124  306227  95675.4
    7125  306051  95854.4
    7126  306113  95062.4
    7127  306090  92928.4
    7128  306003  90557.4
    7129  305942  88118.4
    7130  305942  85486.4
    7131  305777  82753.4
    7132  305988  80791.4
    7133.78  305893  77934.4
    7135.65  305734  76311.4
    7137.58  305808  76078.4
    7139.6  305680  76492.4
    7141.69  305647  77084.4
    7143.86  305620  79211.4
    7146.1  305942  81764.4
    7148.42  305508  83592.4
    7150.81  305424  85350.4
    7153.29  305483  86924.4
    7155.83  305327  87915.4
    7158.46  305483  89927.4
    7161.16  305200  92582.4
    7163.94  305132  93249.4
    7166.79  305071  91644.4
    7169.72  304957  90728.4
    7172.73  306335  90868.4
    7175.81  305180  89530.4
    7178.97  304825  87952.4
    7182.2  304876  87137.4
    7185.51  304902  86437.4
    7188.9  304618  85583.4
    7192.36  304624  84667.4
    7195.91  304913  83392.4
    7199.52  304745  82659.4
    7203.22  304614  84597.4
    7206.98  304423  88543.4
    7210.83  304339  91919.4
    7214.75  304344  95267.4
    7218.75  304283  97930.4
    7222.82  304357  99185.4
    7226.98  304319  98476.4
    7231.2  304222  97058.4
    7235.51  304231  96218.4
    7239.89  304198  95347.4
    7244.34  304007  94398.4
    7248.87  303881  93438.4
    7253.48  303919  94416.4
    7258.17  303951  96810.4
    7262.93  303754  97553.4
    7267.77  304213  97112.4
    7272.68  303800  96434.4
    7277.67  303769  97014.4
    7282.73  303644  98624.4
    7287.88  305223  100524
    7293.1  305571  101824
    7298.39  305554  104173
    7303.76  304737  106440
    7309.21  305425  107769
    7314.74  305492  108516
    7320.34  305591  109203
    7326.01  305373  108641
    7331.77  305523  107574
    7337.6  305182  107050
    7343.5  305317  108063
    7349.48  305162  109658
    7355.54  304917  110967
    7361.68  305087  111432
    7367.89  304884  111953
    7374.18  304985  113687
    7380.54  304699  115098
    7386.98  304841  116221
    7393.49  304650  116879
    7400.09  304742  118623
    7406.76  304658  120751
    7413.5  303795  121166
    7420.32  304548  122173
    7427.22  304707  123307
    7434.19  304310  124247
    7441.24  304342  124688
    7448.37  304397  125012
    7455.57  304333  125241
    7462.85  304376  126842
    7470.21  304048  127998
    7477.64  305708  130592
    7485.15  305961  132267
    7492.73  306134  133616
    7500.39  305977  134654
    7508.13  306748  136215
    7515.94  305949  137201
    7523.83  305935  138799
    7531.8  305816  140797
    7539.84  305839  141723
    7547.96  305863  142828
    7556.16  305560  144201
    7564.43  305785  145765
    7572.77  305582  146484
    7581.2  305558  147365
    7589.7  305208  148027
    7598.27  305315  149728
    7606.93  305378  151715
    7615.66  305488  153702
    7624.46  305001  155293
    7633.34  305391  157304
    7642.3  305129  158730
    7651.34  305107  160185
    7660.45  303292  160361
    7669.63  304931  162775
    7678.9  304978  164763
    7688.24  304909  166328
    7697.65  304843  168169
    7707.14  304761  169775
    7716.71  304730  171231
    7726.36  304652  172706
    7736.08  301749  172723
    7745.88  306494  176786
    7755.75  306137  178456
    7765.7  306231  180522
    7775.73  305604  182177
    7785.83  306122  184742
    7796.01  305959  186777
    7806.26  305753  188583
    7816.59  305849  190572
    7827  305216  191922
    7837.48  305718  194076
    7848.05  305591  195960
    7858.68  305761  198180
    7869.4  305580  200203
    7880.19  305567  202118
    7891.05  305485  204440
    7901.99  305454  206482
    7913.01  305389  208461
    7924.1  305383  210545
    7935.28  305309  212879
    7946.52  305709  215465
    7957.85  305134  217407
    7969.25  305340  219877