File: data/Cd/CdO_10K_02.xdi
# XDI/1.0
# Column.1: energy eV
# Column.2: i0
# Column.3: itrans
# Column.4: irefer
# Beamline.name: SSRL 4-3
# Detector.I0: Ar 30cm
# Detector.I1: Kr 15cm
# Detector.I2: Kr 15cm
# Element.edge: K
# Element.symbol: Cd
# Mono.d_spacing: 1.92009
# Mono.name: Si(220)
# Mono.notes: unfocused, detuned 20% at E=27800eV
# Sample.formula: CdO
# Sample.name: CdO monteponite
# Sample.prep: powder, mixed with B(OH)3
# Sample.reference: Cd foil
# Sample.temperature: 10K
# Scan.start_time: 1995-06-16 13:03:55
# ///
#    Note: mono d_spacing is nominal!
#     exafs to K17
#     368  E XMU XMUR I0
#-------------
#   energy   i0   itrans  irefer
   26485  60178  156774  573789
   26504.7  60112  156800  575777
   26524.5  59948  156562  576945
   26545.3  60179  157316  581876
   26565.2  60135  157467  584103
   26585.1  60166  157590  586874
   26605  60112  157731  588709
   26625  60120  157694  590984
   26644.9  60093  157696  592070
   26665  60158  157597  592254
   26685  59949  155890  582751
   26687.9  60050  155762  581709
   26689.8  60127  155664  580638
   26692.7  60009  154747  575140
   26694.6  59964  154047  570906
   26697.4  59892  152406  560982
   26700.3  59992  149898  546313
   26702.2  60054  147719  533290
   26705.1  60093  142189  502602
   26708  59936  134283  462655
   26709.9  59938  129128  438540
   26712.7  59901  120049  399936
   26714.7  60088  115896  383477
   26717.5  60138  111283  366155
   26720.4  59992  109856  361345
   26722.3  59878  110454  363639
   26725.2  59830  112877  373241
   26727.1  59934  114745  380598
   26730  59926  116556  387879
   26732.9  59723  116985  389936
   26734.8  59819  117471  391910
   26737.7  59945  118113  394784
   26739.6  59961  118317  395774
   26742.4  59899  117974  394590
   26745.3  59741  116579  389234
   26747.2  59774  115650  385460
   26750.1  119596  227099  754642
   26752  119740  224443  744692
   26754  119907  222146  736174
   26755.9  119872  220228  729193
   26757.8  119999  219526  726861
   26759.7  120184  220137  729551
   26761.7  120438  221978  736894
   26763.6  120642  224599  747145
   26765.5  121057  228083  760894
   26768.4  121258  232443  778109
   26770.3  121721  235066  788538
   26773.2  122229  237091  796425
   26775.1  122668  237717  798842
   26778  123184  237485  797535
   26780.9  123468  236609  793957
   26782.8  124543  237809  798443
   26785.7  125279  238629  801437
   26788.6  125801  239776  805710
   26791.5  126596  241605  812574
   26794.4  127394  243386  819242
   26798.2  128166  245207  826250
   26801.1  129137  247497  834891
   26804  129849  249320  841582
   26807.9  130914  251325  849030
   26810.7  131889  252402  852597
   26814.6  132776  252062  850687
   26818.5  133844  251991  849756
   26822.3  134951  253190  853858
   26825.2  135846  255208  861227
   26829.1  137202  258909  875196
   26832.9  138397  262381  888303
   26836.8  139625  265674  900432
   26841.6  140690  268734  912055
   26845.5  142194  272445  926088
   26849.4  143553  276008  939488
   26854.2  145052  279675  953192
   26858.1  146292  282019  961546
   26862.9  147999  284392  970049
   26866.8  149577  286509  977444
   26871.6  151016  288424  983994
   26876.5  152490  291232  994053
   26881.3  154008  294907  1.00781e+06
   26886.2  155968  299832  1.02659e+06
   26891  157826  304251  1.04339e+06
   26895.9  159443  307393  1.05472e+06
   26900.7  160876  309427  1.0616e+06
   26906.6  162992  312538  1.07284e+06
   26911.4  164782  315849  1.08504e+06
   26916.3  166920  320065  1.10041e+06
   26922.1  168571  323738  1.11402e+06
   26928  170352  327940  1.12974e+06
   26932.8  172173  332419  1.1466e+06
   26938.7  174431  338265  1.16912e+06
   26944.5  176142  343283  1.18797e+06
   26950.3  178146  348584  1.2086e+06
   26956.2  180442  353501  1.22726e+06
   26962  180851  354078  1.22754e+06
   26967.9  183540  357852  1.2413e+06
   26973.8  185509  360769  1.25182e+06
   26980.6  188240  365260  1.2688e+06
   26986.5  190114  368590  1.28071e+06
   26992.3  192182  372953  1.29704e+06
   26999.2  194822  379611  1.32284e+06
   27006  196939  386282  1.34886e+06
   27011.9  199332  393502  1.37702e+06
   27018.7  201236  399749  1.40147e+06
   27025.6  203619  403901  1.41671e+06
   27032.5  206273  405876  1.42288e+06
   27039.3  208885  409209  1.43466e+06
   27046.2  211047  414655  1.45576e+06
   27053.1  213833  421753  1.48307e+06
   27059.9  216002  426936  1.50297e+06
   27067.8  218316  432084  1.52254e+06
   27074.7  220956  437756  1.54435e+06
   27081.6  223060  443293  1.56562e+06
   27089.4  225122  449695  1.59111e+06
   27097.3  227778  456619  1.61844e+06
   27104.2  230477  462551  1.64149e+06
   27112.1  232862  466583  1.65613e+06
   27120  235549  470495  1.6705e+06
   27127.9  237773  474017  1.68352e+06
   27135.8  240670  479128  1.7033e+06
   27143.7  243077  484651  1.72486e+06
   27151.6  245699  492193  1.75479e+06
   27159.5  247886  500511  1.78822e+06
   27167.5  250306  508772  1.82157e+06
   27176.4  252833  514696  1.84492e+06
   27184.3  255169  518469  1.85909e+06
   27193.2  257675  523229  1.87763e+06
   27201.2  260101  528312  1.89753e+06
   27210.1  262536  531936  1.91078e+06
   27219.1  265060  536540  1.92925e+06
   27227  267844  543459  1.95672e+06
   27236  270178  550051  1.98384e+06
   27244.9  272667  557723  2.01466e+06
   27253.9  274782  565092  2.04474e+06
   27262.9  277255  571133  2.06942e+06
   27272.9  279469  574871  2.08407e+06
   27281.8  281734  580171  2.10562e+06
   27290.8  284434  587563  2.13593e+06
   27299.8  286884  594132  2.16268e+06
   27309.8  288772  597581  2.17661e+06
   27318.9  291711  602284  2.1958e+06
   27328.9  293764  606959  2.21519e+06
   27338.9  296144  613624  2.24233e+06
   27347.9  298398  621584  2.27561e+06
   27358  300177  629988  2.31121e+06
   27368  302570  636514  2.33808e+06
   27378.1  304649  639826  2.35192e+06
   27388.1  306301  643433  2.36756e+06
   27398.2  308366  648455  2.38857e+06
   27408.3  310825  653855  2.41179e+06
   27419.4  312765  658276  2.43113e+06
   27429.5  314606  663572  2.4535e+06
   27439.6  316483  670286  2.48302e+06
   27450.7  318202  677054  2.51259e+06
   27460.8  320359  682735  2.53652e+06
   27472  322188  688028  2.56024e+06
   27482.1  323650  693339  2.58352e+06
   27493.2  325242  697746  2.60378e+06
   27504.4  327078  701782  2.62256e+06
   27515.6  328344  705142  2.63791e+06
   27526.8  329858  709927  2.66013e+06
   27538  331456  714397  2.68047e+06
   27549.2  333195  719576  2.70421e+06
   27560.4  334983  726163  2.7345e+06
   27571.6  335919  729151  2.74939e+06
   27582.8  337282  733587  2.7705e+06
   27595.1  338279  740051  2.80069e+06
   27606.3  339811  744857  2.82357e+06
   27618.6  340460  747313  2.83685e+06
   27629.9  342145  751412  2.85723e+06
   27642.2  342716  751238  2.86043e+06
   27653.5  344250  755916  2.88296e+06
   27665.8  345269  762686  2.91543e+06
   27678.1  346116  766667  2.93564e+06
   27690.5  346652  769817  2.9536e+06
   27702.8  347182  772913  2.97062e+06
   27715.2  347766  775215  2.98421e+06
   27727.6  348919  779662  3.00741e+06
   27739.9  350133  783562  3.02884e+06
   27752.3  350240  785722  3.04266e+06
   27764.8  351083  788450  3.05852e+06
   27778.2  350267  787479  3.06006e+06
   27790.6  349981  789301  3.07275e+06
   27803.1  351660  795288  3.10311e+06
   27816.6  349666  792636  3.09824e+06
   27829.1  353162  802183  3.14374e+06
   27836.3  354152  805580  3.16066e+06