File: data/Cd/CdO_10K_01.xdi
# XDI/1.0
# Column.1: energy eV
# Column.2: i0
# Column.3: itrans
# Column.4: irefer
# Beamline.name: SSRL 4-3
# Detector.I0: Ar 30cm
# Detector.I1: Kr 15cm
# Detector.I2: Kr 15cm
# Element.edge: K
# Element.symbol: Cd
# Mono.d_spacing: 1.92009
# Mono.name: Si(220)
# Mono.notes: unfocused, detuned 20% at E=27800eV
# Sample.formula: CdO
# Sample.name: CdO monteponite
# Sample.prep: powder, mixed with B(OH)3
# Sample.reference: Cd foil
# Sample.temperature: 10K
# Scan.start_time: 1995-06-16 12:34:45
# ///
#    Note: mono d_spacing is nominal!
#     exafs to K17
#     368  E XMU XMUR I0
#-------------
#   energy   i0   itrans  irefer
   26485  60544  176444  537720
   26504.7  60496  176419  539988
   26524.5  60557  176769  543152
   26545.3  60625  177193  546533
   26565.2  60697  177605  549714
   26585.1  60756  177916  552601
   26605  60747  178134  554916
   26625  60824  178421  557736
   26644.9  60763  178264  558459
   26665  60748  177894  557901
   26685  60793  176119  550305
   26687.9  60753  175447  547663
   26689.8  60879  175309  546816
   26692.7  60838  174103  541483
   26694.6  60799  173033  536658
   26697.4  60828  170646  525934
   26700.3  60699  166257  506627
   26702.2  60782  162879  492147
   26705.1  60785  154839  459705
   26708  60720  144472  421656
   26709.9  60800  138153  399865
   26712.7  60668  127833  366801
   26714.7  60825  123924  354742
   26717.5  60840  120166  343636
   26720.4  60720  120096  343802
   26722.3  60808  121706  348850
   26725.2  60631  124580  357951
   26727.1  60639  126307  363493
   26730  60676  127957  368925
   26732.9  60684  128629  371443
   26734.8  60736  129062  372971
   26737.7  60795  129634  375028
   26739.6  60675  129443  374562
   26742.4  60662  128772  372542
   26745.3  60559  126941  366908
   26747.2  60711  125886  363620
   26750.1  121264  246277  710197
   26752  121425  243435  701685
   26754  121485  240934  694369
   26755.9  121497  239362  689875
   26757.8  121772  239498  690785
   26759.7  122010  240889  695564
   26761.7  122345  243656  704724
   26763.6  122555  246976  715479
   26765.5  122852  250773  727706
   26768.4  123210  255703  743635
   26770.3  123855  258569  752940
   26773.2  124065  259570  756313
   26775.1  124704  260345  758900
   26778  125027  259399  755763
   26780.9  125577  258858  754355
   26782.8  126493  259973  757969
   26785.7  127295  261184  762089
   26788.6  127864  262620  766804
   26791.5  128615  264549  773111
   26794.4  129464  266553  779572
   26798.2  130184  268496  785834
   26801.1  131054  270809  793474
   26804  132111  273413  801963
   26807.9  132832  274664  805988
   26810.7  134155  276188  810786
   26814.6  135057  275539  808806
   26818.5  136194  275597  808924
   26822.3  137259  276982  813457
   26825.2  138462  279921  822857
   26829.1  139665  283811  835337
   26832.9  140956  287774  848016
   26836.8  142184  291309  859570
   26841.6  143185  294499  869829
   26845.5  145107  299420  885859
   26849.4  146333  303020  897336
   26854.2  147743  306734  909473
   26858.1  149122  309392  917797
   26862.9  150855  311830  925545
   26866.8  152328  313812  931662
   26871.6  153884  316158  939235
   26876.5  155618  319678  950692
   26881.3  157118  323821  964100
   26886.2  158710  328551  979561
   26891  160678  333485  995593
   26895.9  162449  336965  1.00666e+06
   26900.7  163903  339066  1.01325e+06
   26906.6  165876  342113  1.0231e+06
   26911.4  167597  345581  1.03427e+06
   26916.3  169444  349601  1.04736e+06
   26922.1  171388  354133  1.06192e+06
   26928  173381  359111  1.07835e+06
   26932.8  175280  364205  1.09467e+06
   26938.7  177224  370042  1.11424e+06
   26944.5  179358  376274  1.13489e+06
   26950.3  181341  382021  1.15378e+06
   26956.2  183736  387399  1.17158e+06
   26962  185759  390595  1.18175e+06
   26967.9  187987  393628  1.1916e+06
   26973.8  190278  397266  1.20339e+06
   26980.6  192211  400563  1.21431e+06
   26986.5  194401  404718  1.22787e+06
   26992.3  196918  410313  1.24643e+06
   26999.2  199271  417148  1.26927e+06
   27006  201494  424746  1.29491e+06
   27011.9  203875  432706  1.32178e+06
   27018.7  206117  440056  1.34643e+06
   27025.6  208534  444193  1.36006e+06
   27032.5  210630  444998  1.36261e+06
   27039.3  213159  448361  1.37341e+06
   27046.2  215406  454564  1.39453e+06
   27053.1  218316  462468  1.42125e+06
   27059.9  220443  467910  1.43978e+06
   27067.8  222917  473718  1.45953e+06
   27074.7  225653  480012  1.48089e+06
   27081.6  227428  485337  1.49901e+06
   27089.4  230260  493764  1.52814e+06
   27097.3  232881  501132  1.55334e+06
   27104.2  235598  507425  1.57502e+06
   27112.1  237938  511381  1.58855e+06
   27120  240639  515467  1.60262e+06
   27127.9  243059  519428  1.61614e+06
   27135.8  245711  524383  1.63327e+06
   27143.7  248009  530067  1.65314e+06
   27151.6  250538  538239  1.68167e+06
   27159.5  253076  548016  1.71597e+06
   27167.5  256065  558058  1.75121e+06
   27176.4  258420  563839  1.7714e+06
   27184.3  260459  567028  1.78306e+06
   27193.2  263350  572825  1.80338e+06
   27201.2  265815  578219  1.82227e+06
   27210.1  267819  580895  1.83204e+06
   27219.1  270146  585478  1.8487e+06
   27227  273330  593724  1.8779e+06
   27236  275483  600497  1.90249e+06
   27244.9  277988  608823  1.93226e+06
   27253.9  279938  616330  1.96024e+06
   27262.9  282830  623484  1.98548e+06
   27272.9  284850  626865  1.99839e+06
   27281.8  287143  632688  2.01959e+06
   27290.8  289513  639913  2.04639e+06
   27299.8  292013  646958  2.07204e+06
   27309.8  294036  650615  2.0862e+06
   27318.9  296478  654549  2.10115e+06
   27328.9  298178  658673  2.11762e+06
   27338.9  300471  665674  2.1436e+06
   27347.9  302659  674139  2.17545e+06
   27358  304868  684151  2.21232e+06
   27368  306716  689587  2.2338e+06
   27378.1  308877  693115  2.24763e+06
   27388.1  310508  696676  2.26237e+06
   27398.2  312562  701849  2.28253e+06
   27408.3  314398  706235  2.30012e+06
   27419.4  316177  710438  2.31766e+06
   27429.5  318247  716386  2.34125e+06
   27439.6  320155  723677  2.37001e+06
   27450.7  321887  730861  2.39796e+06
   27460.8  324000  736446  2.42075e+06
   27472  325531  741431  2.44193e+06
   27482.1  327076  747212  2.46499e+06
   27493.2  328602  751441  2.48369e+06
   27504.4  330086  754859  2.49965e+06
   27515.6  331642  758822  2.51695e+06
   27526.8  332907  763266  2.53663e+06
   27538  334106  767001  2.5537e+06
   27549.2  334792  770221  2.56892e+06
   27560.4  336590  777240  2.59802e+06
   27571.6  338196  781533  2.61748e+06
   27582.8  338862  784602  2.63301e+06
   27595.1  340257  792361  2.66515e+06
   27606.3  341435  796570  2.6848e+06
   27618.6  342235  799037  2.69921e+06
   27629.9  343474  802232  2.71511e+06
   27642.2  344595  802875  2.72281e+06
   27653.5  345346  806033  2.73939e+06
   27665.8  346339  813106  2.77053e+06
   27678.1  346995  816686  2.78869e+06
   27690.5  347944  820778  2.80948e+06
   27702.8  348546  823878  2.82642e+06
   27715.2  349320  826363  2.84145e+06
   27727.6  350159  830385  2.86182e+06
   27739.9  350211  831742  2.8733e+06
   27752.3  351070  835400  2.89316e+06
   27764.8  351483  836980  2.90502e+06
   27778.2  350640  835761  2.90764e+06
   27790.6  350257  837248  2.91978e+06
   27803.1  351526  842457  2.94563e+06
   27816.6  349540  839361  2.94162e+06
   27829.1  353032  849546  2.98567e+06
   27836.3  354065  853140  3.00297e+06