File: data/Cd/CdO_10K_03.xdi
# XDI/1.0
# Column.1: energy eV
# Column.2: i0
# Column.3: itrans
# Column.4: irefer
# Beamline.name: SSRL 4-3
# Detector.I0: Ar 30cm
# Detector.I1: Kr 15cm
# Detector.I2: Kr 15cm
# Element.edge: K
# Element.symbol: Cd
# Mono.d_spacing: 1.92009
# Mono.name: Si(220)
# Mono.notes: unfocused, detuned 20% at E=27800eV
# Sample.formula: CdO
# Sample.name: CdO monteponite
# Sample.prep: powder, mixed with B(OH)3
# Sample.reference: Cd foil
# Sample.temperature: 10K
# Scan.start_time: 1995-06-16 13:03:55
# ///
#    Note: mono d_spacing is nominal!
#     exafs to K17
#     368  E XMU XMUR I0
#-------------
#   energy   i0   itrans  irefer
   26485  58698  142528  594124
   26504.7  58483  142193  594574
   26524.5  58451  142307  596957
   26545.3  58714  142971  602403
   26565.2  58754  143226  605434
   26585.1  58936  143591  609675
   26605  58816  143574  610846
   26625  58902  143755  613938
   26644.9  58879  143696  614904
   26665  58782  143358  613355
   26685  58820  142291  606267
   26687.9  58925  142094  605337
   26689.8  58973  141943  604031
   26692.7  58980  141347  599751
   26694.6  58913  140722  595243
   26697.4  58779  139317  585122
   26700.3  58764  137240  570384
   26702.2  58878  135446  558026
   26705.1  58844  130778  527202
   26708  58840  124388  488313
   26709.9  58827  119779  462229
   26712.7  58906  112005  422206
   26714.7  58773  107610  401482
   26717.5  58787  102913  380526
   26720.4  58704  101272  373793
   26722.3  58768  101805  376340
   26725.2  58822  104005  386332
   26727.1  58856  105577  393611
   26730  58781  107240  401398
   26732.9  58650  107834  404506
   26734.8  58813  108386  407060
   26737.7  58762  108719  408841
   26739.6  58611  108666  408796
   26742.4  58640  108595  408501
   26745.3  58450  107420  403403
   26747.2  58624  106828  400593
   26750.1  117241  210033  784803
   26752  117262  207560  774043
   26754  117163  205019  762869
   26755.9  117198  203204  755036
   26757.8  117438  202492  752105
   26759.7  117881  203183  755598
   26761.7  118024  204439  761194
   26763.6  118259  206703  771393
   26765.5  118691  209776  785208
   26768.4  119094  214217  805351
   26770.3  119320  216380  815100
   26773.2  119705  218301  823791
   26775.1  120431  219466  828677
   26778  120867  219335  827583
   26780.9  121208  218651  824246
   26782.8  121876  219167  825930
   26785.7  122704  219988  829205
   26788.6  123100  220807  832341
   26791.5  123882  222494  839571
   26794.4  124751  224277  847092
   26798.2  125417  225825  853623
   26801.1  126311  227776  861880
   26804  127283  229931  870877
   26807.9  128128  231560  877626
   26810.7  129019  232616  881237
   26814.6  129983  232549  880151
   26818.5  131338  233046  881264
   26822.3  132054  233422  882005
   26825.2  133091  235413  890195
   26829.1  134348  238636  903719
   26832.9  135650  242074  918365
   26836.8  136571  244658  929145
   26841.6  138052  248176  944167
   26845.5  139340  251304  957275
   26849.4  140667  254546  971030
   26854.2  141945  257704  984111
   26858.1  143672  260747  996836
   26862.9  145015  262478  1.00317e+06
   26866.8  146484  264345  1.01036e+06
   26871.6  147809  266021  1.0165e+06
   26876.5  149421  268787  1.0277e+06
   26881.3  151221  272635  1.04378e+06
   26886.2  153079  277014  1.06255e+06
   26891  154500  280537  1.07707e+06
   26895.9  156442  284058  1.09161e+06
   26900.7  157990  286262  1.10008e+06
   26906.6  159421  288155  1.1069e+06
   26911.4  161584  291819  1.12186e+06
   26916.3  162915  294558  1.13264e+06
   26922.1  165207  298973  1.15124e+06
   26928  166849  302668  1.1664e+06
   26932.8  168148  306076  1.18033e+06
   26938.7  170057  310924  1.20108e+06
   26944.5  172617  316888  1.22693e+06
   26950.3  174592  321863  1.24835e+06
   26956.2  176767  326389  1.26728e+06
   26962  179093  330007  1.28195e+06
   26967.9  180912  332190  1.28976e+06
   26973.8  183004  335115  1.3013e+06
   26980.6  185429  338879  1.31636e+06
   26986.5  187718  342707  1.33207e+06
   26992.3  189950  347014  1.3499e+06
   26999.2  192339  352766  1.3747e+06
   27006  194186  358505  1.39971e+06
   27011.9  196749  365523  1.43019e+06
   27018.7  199077  372130  1.45931e+06
   27025.6  201311  376124  1.47559e+06
   27032.5  203618  377722  1.48017e+06
   27039.3  205843  380020  1.48865e+06
   27046.2  208539  385876  1.51371e+06
   27053.1  211003  392016  1.54035e+06
   27059.9  213162  396971  1.56122e+06
   27067.8  215822  402399  1.58438e+06
   27074.7  218022  407008  1.60368e+06
   27081.6  220498  412750  1.62807e+06
   27089.4  223035  419492  1.65782e+06
   27097.3  225535  425781  1.68531e+06
   27104.2  228138  431323  1.70904e+06
   27112.1  230603  435351  1.72571e+06
   27120  232650  438178  1.73628e+06
   27127.9  235040  441795  1.75093e+06
   27135.8  237864  446537  1.77062e+06
   27143.7  240533  452086  1.79433e+06
   27151.6  242842  458569  1.82265e+06
   27159.5  245434  466860  1.86004e+06
   27167.5  248033  474995  1.89654e+06
   27176.4  250080  480029  1.91821e+06
   27184.3  253115  484899  1.93844e+06
   27193.2  255539  489232  1.9567e+06
   27201.2  258067  494313  1.97834e+06
   27210.1  260307  497578  1.99134e+06
   27219.1  262716  501672  2.00849e+06
   27227  265603  508283  2.03772e+06
   27236  268095  514824  2.06644e+06
   27244.9  270419  521679  2.09746e+06
   27253.9  272355  528381  2.12742e+06
   27262.9  274916  534460  2.15426e+06
   27272.9  277509  538772  2.17248e+06
   27281.8  279709  543584  2.19341e+06
   27290.8  282210  550243  2.22349e+06
   27299.8  284406  556205  2.24949e+06
   27309.8  286866  560692  2.26919e+06
   27318.9  288934  563746  2.28206e+06
   27328.9  291291  568715  2.30359e+06
   27338.9  293273  574251  2.32878e+06
   27347.9  295779  582087  2.36445e+06
   27358  297897  590721  2.40435e+06
   27368  299707  596107  2.42854e+06
   27378.1  301998  599759  2.44471e+06
   27388.1  304476  604557  2.46614e+06
   27398.2  306427  609092  2.48691e+06
   27408.3  308676  614044  2.50911e+06
   27419.4  310527  618169  2.52804e+06
   27429.5  312526  623410  2.55231e+06
   27439.6  314548  630097  2.58291e+06
   27450.7  315622  635537  2.60833e+06
   27460.8  317505  640457  2.63143e+06
   27472  319336  645471  2.65487e+06
   27482.1  321194  651013  2.68301e+06
   27493.2  323357  656738  2.70803e+06
   27504.4  324559  659661  2.72202e+06
   27515.6  326165  663510  2.74074e+06
   27526.8  328087  668821  2.76612e+06
   27538  329348  672648  2.78453e+06
   27549.2  331025  677438  2.80838e+06
   27560.4  331919  682205  2.83152e+06
   27571.6  333480  686389  2.85243e+06
   27582.8  335017  690814  2.87398e+06
   27595.1  336231  697352  2.907e+06
   27606.3  338183  702999  2.9347e+06
   27618.6  339120  705960  2.95009e+06
   27629.9  340502  709535  2.96846e+06
   27642.2  341502  710294  2.97486e+06
   27653.5  342961  714534  2.99641e+06
   27665.8  343790  720720  3.02767e+06
   27678.1  344768  724929  3.04986e+06
   27690.5  345709  728742  3.07102e+06
   27702.8  346222  731873  3.08843e+06
   27715.2  347364  735191  3.10665e+06
   27727.6  348644  739721  3.13153e+06
   27739.9  349552  743196  3.15031e+06
   27752.3  350644  747253  3.17322e+06
   27764.8  350775  748606  3.18284e+06
   27778.2  350212  748325  3.18584e+06
   27790.6  350331  750928  3.20197e+06
   27803.1  351753  756164  3.23072e+06
   27816.6  349840  754244  3.2262e+06
   27829.1  352680  761950  3.26649e+06
   27836.3  354503  766786  3.29164e+06