File: data/Cd/CdS_10K_03.xdi
# XDI/1.0
# Column.1: energy eV
# Column.2: i0
# Column.3: itrans
# Column.4: irefer
# Beamline.name: SSRL 4-3
# Detector.I0: Ar 30cm
# Detector.I1: Kr 15cm
# Detector.I2: Kr 15cm
# Element.edge: K
# Element.symbol: Cd
# Mono.d_spacing: 1.92009
# Mono.name: Si(220)
# Mono.notes: unfocused, detuned 20% at E=27800eV
# Sample.formula: CdS
# Sample.name: CdS greenockite
# Sample.prep: powder, mixed with B(OH)3
# Sample.reference: Cd foil
# Sample.temperature: 10K
# Scan.start_time: 1995-06-16 15:35:58
# ///
#    Note: mono d_spacing is nominal!
#     exafs to K17
#     368  E XMU XMUR I0
#-------------
#   energy   i0   itrans  irefer
   26485  46660  106214  618957
   26504.7  46635  106146  620481
   26524.5  46701  106394  623629
   26545.3  46916  106912  628617
   26565.2  46538  106412  625603
   26585.1  46995  107248  633634
   26605  46869  107126  633789
   26625  46868  107128  635160
   26644.9  46885  107073  636010
   26665  46861  106741  634600
   26685  46774  105592  625900
   26687.9  46838  105470  624901
   26689.8  46917  105393  624099
   26692.7  46848  104773  619240
   26694.6  46851  104338  615880
   26697.4  46892  103414  608663
   26700.3  46898  101803  596123
   26702.2  46970  100443  585646
   26705.1  46953  96892.8  558792
   26708  46901  92181.8  524790
   26709.9  46839  89006.8  502647
   26712.7  46839  83735.8  467562
   26714.7  46740  80480.8  446695
   26717.5  46783  76037.8  418885
   26720.4  46792  72549.8  397632
   26722.3  46708  71148.8  389230
   26725.2  46692  70474.8  385280
   26727.1  46735  70633.8  386302
   26730  46740  70908.8  388070
   26732.9  46662  71031.8  389018
   26734.8  46707  71272.8  390472
   26737.7  46658  71489.8  391888
   26739.6  46629  71640.8  392891
   26742.4  46587  71868.8  394365
   26745.3  46615  72173.8  396394
   26747.2  46683  72413.8  397882
   26750.1  93255  144943  796603
   26752  93331.9  145014  797261
   26754  93368.4  144863  796503
   26755.9  93427.9  144567  794857
   26757.8  93542.1  144215  792847
   26759.7  93805.2  143951  791457
   26761.7  93945.1  143535  788940
   26763.6  94110.8  143220  787062
   26765.5  94429.4  143184  786885
   26768.4  94665.7  142972  785683
   26770.3  95000.9  143257  787269
   26773.2  95136.9  143353  787948
   26775.1  95619.7  144137  792401
   26778  96240.3  145207  798899
   26780.9  96435.7  145815  802576
   26782.8  97013  146954  809145
   26785.7  97491  148280  816981
   26788.6  97922.9  149722  825466
   26791.5  98521.6  151516  836037
   26794.4  99319.1  153476  847810
   26798.2  99848.5  154990  856912
   26801.1  100600  156307  864458
   26804  101191  157103  869075
   26807.9  101979  157786  872998
   26810.7  102467  158060  874234
   26814.6  103147  158249  875223
   26818.5  104132  158990  879390
   26822.3  105000  159796  884000
   26825.2  105904  160983  890760
   26829.1  106714  162158  897372
   26832.9  107632  163611  905801
   26836.8  108564  165228  915266
   26841.6  109405  166926  925184
   26845.5  110439  168929  936804
   26849.4  111529  171112  949524
   26854.2  112642  173503  963638
   26858.1  113723  175695  976475
   26862.9  114938  178204  991235
   26866.8  116080  180331  1.00366e+06
   26871.6  117282  182422  1.01591e+06
   26876.5  118514  184302  1.02677e+06
   26881.3  119841  185932  1.03602e+06
   26886.2  121207  187392  1.04443e+06
   26891  122555  189021  1.0538e+06
   26895.9  123689  190767  1.06375e+06
   26900.7  125068  193229  1.07815e+06
   26906.6  126421  195842  1.09352e+06
   26911.4  127779  198164  1.1069e+06
   26916.3  128978  200028  1.11772e+06
   26922.1  130580  202477  1.13197e+06
   26928  131882  204875  1.14598e+06
   26932.8  133307  207753  1.16282e+06
   26938.7  134914  211271  1.18382e+06
   26944.5  136133  214199  1.20122e+06
   26950.3  138087  217977  1.22364e+06
   26956.2  139699  220806  1.24028e+06
   26962  141327  223122  1.25367e+06
   26967.9  143075  225207  1.26579e+06
   26973.8  144681  227179  1.27711e+06
   26980.6  146166  229449  1.29047e+06
   26986.5  148075  232862  1.3105e+06
   26992.3  149904  236333  1.33109e+06
   26999.2  151564  239704  1.35118e+06
   27006  153348  243185  1.37197e+06
   27011.9  155060  246291  1.39025e+06
   27018.7  156708  248971  1.40603e+06
   27025.6  158591  251675  1.42193e+06
   27032.5  160384  254554  1.43897e+06
   27039.3  162108  258218  1.46089e+06
   27046.2  163947  262738  1.48806e+06
   27053.1  166009  267282  1.51538e+06
   27059.9  167948  270697  1.53572e+06
   27067.8  169545  272865  1.54855e+06
   27074.7  171763  275930  1.5667e+06
   27081.6  173495  278503  1.58182e+06
   27089.4  175273  281574  1.60018e+06
   27097.3  177406  285426  1.62344e+06
   27104.2  179057  288620  1.64261e+06
   27112.1  181142  292877  1.66819e+06
   27120  182686  296693  1.69116e+06
   27127.9  183295  298795  1.70356e+06
   27135.8  185218  302054  1.72327e+06
   27143.7  187314  305421  1.74356e+06
   27151.6  189388  309020  1.76531e+06
   27159.5  191314  312577  1.78678e+06
   27167.5  193356  316530  1.81081e+06
   27176.4  195132  320593  1.83551e+06
   27184.3  197334  325062  1.8629e+06
   27193.2  199263  328692  1.88489e+06
   27201.2  201145  331824  1.90392e+06
   27210.1  202902  334783  1.92188e+06
   27219.1  204680  337601  1.93909e+06
   27227  206872  341535  1.96309e+06
   27236  208734  345634  1.98829e+06
   27244.9  211195  350730  2.01977e+06
   27253.9  213028  354865  2.04524e+06
   27262.9  215170  359175  2.07187e+06
   27272.9  216760  362632  2.09335e+06
   27281.8  218956  366929  2.11999e+06
   27290.8  220897  370425  2.14166e+06
   27299.8  222774  373458  2.16047e+06
   27309.8  224732  377184  2.18368e+06
   27318.9  227049  382116  2.21432e+06
   27328.9  228832  386406  2.24129e+06
   27338.9  230747  390468  2.26684e+06
   27347.9  232655  394148  2.28995e+06
   27358  234486  397680  2.31215e+06
   27368  236245  401048  2.33357e+06
   27378.1  238374  405087  2.35911e+06
   27388.1  239982  408524  2.38085e+06
   27398.2  241701  412689  2.40735e+06
   27408.3  243353  417069  2.43512e+06
   27419.4  245006  420877  2.45972e+06
   27429.5  246505  424093  2.48026e+06
   27439.6  248247  427670  2.5032e+06
   27450.7  249479  430568  2.52199e+06
   27460.8  251593  434551  2.54781e+06
   27472  253423  438265  2.57196e+06
   27482.1  255068  441985  2.59614e+06
   27493.2  256245  445341  2.61816e+06
   27504.4  257884  449427  2.64485e+06
   27515.6  259413  453054  2.66877e+06
   27526.8  260938  456447  2.69113e+06
   27538  262607  459991  2.71461e+06
   27549.2  264072  463287  2.73645e+06
   27560.4  265155  466246  2.75642e+06
   27571.6  266646  470077  2.78195e+06
   27582.8  267704  473193  2.8028e+06
   27595.1  269177  476935  2.82815e+06
   27606.3  270494  480246  2.85063e+06
   27618.6  271652  483279  2.87139e+06
   27629.9  273151  486616  2.89412e+06
   27642.2  273749  488518  2.9082e+06
   27653.5  274830  491533  2.92878e+06
   27665.8  275995  494915  2.95227e+06
   27678.1  277142  498124  2.97482e+06
   27690.5  278070  501068  2.99558e+06
   27702.8  278825  503689  3.01448e+06
   27715.2  279962  506893  3.03703e+06
   27727.6  280919  509692  3.05721e+06
   27739.9  282028  512569  3.07795e+06
   27752.3  283430  515996  3.10218e+06
   27764.8  284073  518356  3.11964e+06
   27778.2  284160  520215  3.13441e+06
   27790.6  283250  519749  3.13399e+06
   27803.1  285280  524565  3.16758e+06
   27816.6  284128  523613  3.16481e+06
   27829.1  286196  528407  3.1981e+06
   27836.3  287849  531901  3.22194e+06