File: data/Cd/CdS_10K_01.xdi
# XDI/1.0
# Column.1: energy eV
# Column.2: i0
# Column.3: itrans
# Column.4: irefer
# Beamline.name: SSRL 4-3
# Detector.I0: Ar 30cm
# Detector.I1: Kr 15cm
# Detector.I2: Kr 15cm
# Element.edge: K
# Element.symbol: Cd
# Mono.d_spacing: 1.92009
# Mono.name: Si(220)
# Mono.notes: unfocused, detuned 20% at E=27800eV
# Sample.formula: CdS
# Sample.name: CdS greenockite
# Sample.prep: powder, mixed with B(OH)3
# Sample.reference: Cd foil
# Sample.temperature: 10K
# Scan.start_time: 1995-06-16 15:35:58
# ///
#    Note: mono d_spacing is nominal!
#     exafs to K17
#     368  E XMU XMUR I0
#-------------
#   energy   i0   itrans  irefer
   26485  48276  113068  614891
   26504.7  48189  112966  615904
   26524.5  48304  113213  619523
   26545.3  48418  113583  623374
   26565.2  48447  113752  625921
   26585.1  48582  114043  629615
   26605  48423  113880  629453
   26625  48522  114051  632322
   26644.9  48429  113840  631893
   26665  48507  113709  631920
   26685  48585  112817  625375
   26687.9  48587  112588  623539
   26689.8  48585  112379  621767
   26692.7  48598  111898  617996
   26694.6  48511  111339  613543
   26697.4  48443  110273  605101
   26700.3  48563  108898  594181
   26702.2  48608  107501  583390
   26705.1  48520  103862  555823
   26708  48602  99382.8  523622
   26709.9  48544  96175.8  501683
   26712.7  48502  90772.8  466440
   26714.7  48496  87585.8  446652
   26717.5  48503  82853.8  418291
   26720.4  48459  79084.8  396504
   26722.3  48389  77624.8  388209
   26725.2  48432  76944.8  384472
   26727.1  48533  77180.8  385864
   26730  48554  77492.8  387775
   26732.9  48513  77685.8  389025
   26734.8  48441  77774.8  389501
   26737.7  48463  78098.8  391539
   26739.6  48419  78242.8  392345
   26742.4  48435  78563.8  394371
   26745.3  48250  78573.8  394610
   26747.2  48364  78898.8  396529
   26750.1  96871  158308  796184
   26752  96739.9  158102  795233
   26754  96923.4  158188  795811
   26755.9  96896.9  157774  793527
   26757.8  97149.1  157603  792764
   26759.7  97217.2  157088  789840
   26761.7  97484.1  156829  788422
   26763.6  97674.8  156518  786604
   26765.5  97944.4  156424  785963
   26768.4  98341.7  156417  785895
   26770.3  98628.9  156633  786987
   26773.2  98907.9  156915  788671
   26775.1  99321.7  157609  792321
   26778  99703.3  158391  796612
   26780.9  100143  159394  802187
   26782.8  100687  160521  808236
   26785.7  101088  161786  815106
   26788.6  101696  163527  824776
   26791.5  102226  165300  834475
   26794.4  102941  167283  845458
   26798.2  103523  169021  855163
   26801.1  104307  170487  863033
   26804  105079  171644  869187
   26807.9  105815  172330  872675
   26810.7  106504  172928  875523
   26814.6  107194  173154  876364
   26818.5  108123  173839  879658
   26822.3  108935  174614  883497
   26825.2  109891  175913  890300
   26829.1  110775  177230  897132
   26832.9  111726  178809  905493
   26836.8  112661  180539  914632
   26841.6  113666  182558  925567
   26845.5  114690  184635  936733
   26849.4  115939  187166  950326
   26854.2  116996  189629  963724
   26858.1  118094  191973  976370
   26862.9  119488  194889  992343
   26866.8  120698  197262  1.00509e+06
   26871.6  121960  199611  1.01782e+06
   26876.5  123069  201459  1.02739e+06
   26881.3  124291  203050  1.03567e+06
   26886.2  125745  204750  1.04444e+06
   26891  126731  205898  1.05016e+06
   26895.9  128182  208186  1.06218e+06
   26900.7  129584  210799  1.07624e+06
   26906.6  130980  213649  1.09166e+06
   26911.4  132365  216149  1.10505e+06
   26916.3  133809  218532  1.11767e+06
   26922.1  135243  220854  1.12995e+06
   26928  136601  223403  1.14376e+06
   26932.8  138258  226793  1.16204e+06
   26938.7  139778  230366  1.1816e+06
   26944.5  141145  233764  1.20015e+06
   26950.3  142949  237545  1.22086e+06
   26956.2  144440  240422  1.23631e+06
   26962  146283  243230  1.25137e+06
   26967.9  147966  245378  1.26258e+06
   26973.8  149566  247435  1.27323e+06
   26980.6  151067  249855  1.28611e+06
   26986.5  152839  253212  1.30423e+06
   26992.3  154440  256544  1.32222e+06
   26999.2  156205  260287  1.3428e+06
   27006  157887  263846  1.36226e+06
   27011.9  159782  267458  1.38181e+06
   27018.7  161573  270541  1.39855e+06
   27025.6  163485  273456  1.41426e+06
   27032.5  165118  276199  1.42893e+06
   27039.3  167031  280322  1.45158e+06
   27046.2  168848  285059  1.47784e+06
   27053.1  170798  289715  1.50379e+06
   27059.9  172700  293373  1.52373e+06
   27067.8  174725  296377  1.54006e+06
   27074.7  176503  298969  1.55389e+06
   27081.6  178487  302091  1.57079e+06
   27089.4  180167  305185  1.58761e+06
   27097.3  181990  308787  1.60746e+06
   27104.2  183715  312279  1.62661e+06
   27112.1  185908  316902  1.65235e+06
   27120  187840  321523  1.67808e+06
   27127.9  189712  325682  1.70132e+06
   27135.8  191483  328985  1.7194e+06
   27143.7  193546  332547  1.73899e+06
   27151.6  195407  336019  1.75804e+06
   27159.5  197456  340042  1.78024e+06
   27167.5  199364  344023  1.80253e+06
   27176.4  201328  348609  1.8283e+06
   27184.3  202870  352366  1.84923e+06
   27193.2  204746  356127  1.87043e+06
   27201.2  206779  359788  1.89062e+06
   27210.1  208485  362821  1.9076e+06
   27219.1  210216  365776  1.92389e+06
   27227  212469  369990  1.94768e+06
   27236  214246  374182  1.9715e+06
   27244.9  216008  378487  1.99592e+06
   27253.9  218210  383468  2.02423e+06
   27262.9  219940  387414  2.04666e+06
   27272.9  221707  391440  2.0696e+06
   27281.8  223364  395180  2.09078e+06
   27290.8  225201  398705  2.11074e+06
   27299.8  227176  402078  2.13014e+06
   27309.8  229028  405899  2.15188e+06
   27318.9  230904  410384  2.17768e+06
   27328.9  232516  414659  2.2025e+06
   27338.9  234291  418740  2.22614e+06
   27347.9  236221  422768  2.24916e+06
   27358  237950  426319  2.27001e+06
   27368  239795  430112  2.29198e+06
   27378.1  240836  432698  2.30695e+06
   27388.1  242333  436122  2.32717e+06
   27398.2  244115  440652  2.35369e+06
   27408.3  245703  445156  2.38019e+06
   27419.4  247017  448703  2.40148e+06
   27429.5  248578  452254  2.42237e+06
   27439.6  250092  455714  2.44281e+06
   27450.7  251706  459355  2.46464e+06
   27460.8  253180  462559  2.48389e+06
   27472  254298  465402  2.50109e+06
   27482.1  256186  469680  2.52667e+06
   27493.2  257641  473692  2.55127e+06
   27504.4  259041  477707  2.57544e+06
   27515.6  260196  480855  2.5948e+06
   27526.8  261433  483978  2.61403e+06
   27538  262709  487096  2.63328e+06
   27549.2  263802  489900  2.65087e+06
   27560.4  265143  493512  2.67327e+06
   27571.6  266241  496867  2.69416e+06
   27582.8  267005  499658  2.71194e+06
   27595.1  268195  503146  2.73398e+06
   27606.3  269077  505909  2.75178e+06
   27618.6  270170  508962  2.77164e+06
   27629.9  271186  511714  2.78952e+06
   27642.2  271796  513799  2.80364e+06
   27653.5  273262  517515  2.82735e+06
   27665.8  274255  520834  2.84906e+06
   27678.1  275088  523657  2.86787e+06
   27690.5  276268  527107  2.89032e+06
   27702.8  276997  529815  2.90865e+06
   27715.2  277790  532629  2.92748e+06
   27727.6  278573  535192  2.94508e+06
   27739.9  279366  537682  2.96232e+06
   27752.3  279890  539696  2.97671e+06
   27764.8  280706  542496  2.99588e+06
   27778.2  280795  544449  3.0106e+06
   27790.6  280108  544288  3.01281e+06
   27803.1  281196  547700  3.0358e+06
   27816.6  280318  547174  3.03598e+06
   27829.1  282350  552211  3.06876e+06
   27836.3  283423  554879  3.08625e+06