File: data/Cd/CdS_10K_02.xdi
# XDI/1.0
# Column.1: energy eV
# Column.2: i0
# Column.3: itrans
# Column.4: irefer
# Beamline.name: SSRL 4-3
# Detector.I0: Ar 30cm
# Detector.I1: Kr 15cm
# Detector.I2: Kr 15cm
# Element.edge: K
# Element.symbol: Cd
# Mono.d_spacing: 1.92009
# Mono.name: Si(220)
# Mono.notes: unfocused, detuned 20% at E=27800eV
# Sample.formula: CdS
# Sample.name: CdS greenockite
# Sample.prep: powder, mixed with B(OH)3
# Sample.reference: Cd foil
# Sample.temperature: 10K
# Scan.start_time: 1995-06-16 15:35:58
# ///
#    Note: mono d_spacing is nominal!
#     exafs to K17
#     368  E XMU XMUR I0
#-------------
#   energy   i0   itrans  irefer
   26485  48194  110575  626815
   26504.7  48105  110429  627779
   26524.5  48198  110717  631174
   26545.3  48213  110864  633662
   26565.2  48186  110974  635398
   26585.1  48248  111152  638163
   26605  48122  111040  638351
   26625  48053  110911  638934
   26644.9  48044  110892  639595
   26665  48055  110664  638762
   26685  47932  109402  629715
   26687.9  48001  109301  628748
   26689.8  48101  109287  628381
   26692.7  48104  108806  624543
   26694.6  48025  108263  620282
   26697.4  47970  107242  612166
   26700.3  47797  105407  597859
   26702.2  47881  104172  587958
   26705.1  47930  100835  562505
   26708  47907  96236.8  529118
   26709.9  47905  93182.8  507823
   26712.7  47934  87884.8  472602
   26714.7  47861  84626.8  451802
   26717.5  47816  79834.8  422240
   26720.4  47850  76151.8  400284
   26722.3  47898  74842.8  392610
   26725.2  47644  73717.8  386169
   26727.1  47793  74021.8  387937
   26730  47784  74288.8  389599
   26732.9  47853  74635.8  391765
   26734.8  47803  74727.8  392431
   26737.7  47819  75042.8  394415
   26739.6  47815  75236.8  395637
   26742.4  47756  75446.8  396966
   26745.3  47687  75621.8  398163
   26747.2  47648  75728.8  398834
   26750.1  95453  151979  800964
   26752  95503.9  152035  801514
   26754  95582.4  151935  801138
   26755.9  95490.9  151439  798307
   26757.8  95691.1  151220  797139
   26759.7  95756.2  150714  794198
   26761.7  95972.1  150378  792284
   26763.6  96156.8  150053  790419
   26765.5  96601.4  150180  791180
   26768.4  96811.7  149926  789678
   26770.3  97112.9  150173  790983
   26773.2  97159.9  150136  790740
   26775.1  97832.7  151154  796571
   26778  98310.3  152060  801805
   26780.9  98480.7  152673  805294
   26782.8  99011  153749  811305
   26785.7  99632  155291  820190
   26788.6  100189  156934  829599
   26791.5  100779  158738  839941
   26794.4  101373  160500  850062
   26798.2  101949  162170  859674
   26801.1  102673  163455  867075
   26804  103387  164516  872721
   26807.9  104255  165346  877318
   26810.7  104980  165949  880434
   26814.6  105604  166073  880804
   26818.5  106540  166756  884282
   26822.3  107330  167455  888044
   26825.2  108345  168815  895550
   26829.1  109231  170106  902604
   26832.9  110189  171669  911251
   26836.8  111008  173173  919664
   26841.6  112102  175281  931533
   26845.5  113090  177277  942565
   26849.4  114160  179461  954977
   26854.2  115222  181853  968541
   26858.1  116345  184185  981616
   26862.9  117448  186614  995388
   26866.8  118631  188853  1.00811e+06
   26871.6  119907  191126  1.0209e+06
   26876.5  121207  193151  1.0322e+06
   26881.3  122494  194781  1.04105e+06
   26886.2  123758  196151  1.04838e+06
   26891  125184  197919  1.0581e+06
   26895.9  126266  199625  1.0673e+06
   26900.7  127776  202341  1.08265e+06
   26906.6  129175  205102  1.09827e+06
   26911.4  130596  207565  1.11208e+06
   26916.3  131733  209429  1.12226e+06
   26922.1  133309  211894  1.13599e+06
   26928  134602  214329  1.14965e+06
   26932.8  136139  217431  1.16716e+06
   26938.7  137751  221058  1.18793e+06
   26944.5  139127  224340  1.20671e+06
   26950.3  140844  227874  1.22687e+06
   26956.2  142562  230979  1.24444e+06
   26962  143931  233016  1.25558e+06
   26967.9  145640  235110  1.26724e+06
   26973.8  147147  236980  1.27727e+06
   26980.6  148674  239356  1.29077e+06
   26986.5  150511  242761  1.30994e+06
   26992.3  152375  246369  1.33047e+06
   26999.2  154055  249862  1.35046e+06
   27006  155830  253442  1.37105e+06
   27011.9  157513  256613  1.38894e+06
   27018.7  159557  259951  1.40799e+06
   27025.6  161239  262431  1.42185e+06
   27032.5  162917  265214  1.43757e+06
   27039.3  164611  268882  1.45882e+06
   27046.2  166648  273846  1.48745e+06
   27053.1  168452  278124  1.51223e+06
   27059.9  170267  281479  1.53136e+06
   27067.8  172267  284361  1.54779e+06
   27074.7  174134  286965  1.56253e+06
   27081.6  175987  289809  1.57851e+06
   27089.4  177602  292706  1.59504e+06
   27097.3  179750  296698  1.61813e+06
   27104.2  181544  300221  1.63843e+06
   27112.1  183394  304171  1.66144e+06
   27120  185400  308776  1.68811e+06
   27127.9  187101  312527  1.70992e+06
   27135.8  189121  316030  1.73015e+06
   27143.7  191325  319646  1.75099e+06
   27151.6  193145  322990  1.77029e+06
   27159.5  195244  326918  1.79309e+06
   27167.5  197203  330838  1.81601e+06
   27176.4  199037  335140  1.84114e+06
   27184.3  200868  339219  1.86495e+06
   27193.2  202728  342807  1.88597e+06
   27201.2  204862  346449  1.90733e+06
   27210.1  206390  349141  1.92295e+06
   27219.1  208428  352482  1.94249e+06
   27227  210448  356233  1.9645e+06
   27236  212234  360359  1.98871e+06
   27244.9  214180  364750  2.01503e+06
   27253.9  216128  369187  2.04128e+06
   27262.9  217905  373093  2.06439e+06
   27272.9  219892  377272  2.08944e+06
   27281.8  221799  381261  2.1131e+06
   27290.8  223720  384762  2.13387e+06
   27299.8  225747  388162  2.15412e+06
   27309.8  227173  391238  2.17247e+06
   27318.9  228939  395401  2.19745e+06
   27328.9  230549  399536  2.22255e+06
   27338.9  232406  403634  2.24727e+06
   27347.9  234271  407446  2.27004e+06
   27358  236020  410886  2.29104e+06
   27368  237865  414595  2.31349e+06
   27378.1  239418  417877  2.33371e+06
   27388.1  241061  421418  2.35539e+06
   27398.2  242737  425669  2.38117e+06
   27408.3  244740  430657  2.41169e+06
   27419.4  246302  434494  2.43548e+06
   27429.5  247915  438014  2.45716e+06
   27439.6  249301  441087  2.4764e+06
   27450.7  250683  444272  2.49624e+06
   27460.8  252690  448222  2.52083e+06
   27472  254062  451373  2.54063e+06
   27482.1  255340  454529  2.56061e+06
   27493.2  256806  458416  2.58521e+06
   27504.4  258375  462573  2.61117e+06
   27515.6  259648  465913  2.63231e+06
   27526.8  260788  468784  2.65088e+06
   27538  262082  471816  2.67036e+06
   27549.2  263573  475243  2.69233e+06
   27560.4  265028  478844  2.71575e+06
   27571.6  266714  483093  2.74304e+06
   27582.8  267872  486458  2.76468e+06
   27595.1  268998  489780  2.78645e+06
   27606.3  270189  492939  2.80732e+06
   27618.6  271336  495987  2.82772e+06
   27629.9  272542  498913  2.84716e+06
   27642.2  273454  501342  2.86402e+06
   27653.5  274638  504595  2.88558e+06
   27665.8  275559  507659  2.90651e+06
   27678.1  276539  510720  2.92728e+06
   27690.5  277676  514051  2.94974e+06
   27702.8  278760  517276  2.97181e+06
   27715.2  279606  520077  2.99111e+06
   27727.6  280417  522657  3.00939e+06
   27739.9  281100  524978  3.02593e+06
   27752.3  282090  527695  3.0452e+06
   27764.8  283023  530737  3.06649e+06
   27778.2  282846  532172  3.07822e+06
   27790.6  282178  532044  3.08043e+06
   27803.1  283832  536345  3.10965e+06
   27816.6  282574  535218  3.10603e+06
   27829.1  285355  541369  3.14675e+06
   27836.3  286907  544758  3.16939e+06