File: data/as2o3_100K_scan2.xdi
# XDI/1.0
# Column.1: energy eV
# Column.2: i0
# Column.3: itrans
# Column.4: irefer
# Beamline.name: SSRL 2-3
# Beamline.notes: vert slits = 0.6mm
# Detector.I0: N2 15cm
# Detector.I1: Ar 30cm
# Detector.I2: Ar 15cm
# Element.edge: K
# Element.symbol: As
# Mono.d_spacing: 3.13550
# Mono.name: Si(111)
# Mono.notes: unfocused, detuned 75%, clockwise at E=12000eV
# Sample.formula: As2O3
# Sample.name: As2O3 arsenious oxide
# Sample.prep: powder on tape (2 layers)
# Sample.reference: GaAs powder
# Sample.temperature: 100K
# Scan.start_time: 1997-04-19 23:43:03
# ///
#    Note: mono d_spacing is nominal!
#     exafs to K16, GaAs in IR
#     413  E XMU XMUR I0
#-------------
#   energy   i0   itrans  irefer
   11634.9  511889  94191.5  38431
   11654.9  506843  93923.5  38772
   11675.1  501933  93696.5  39134
   11695  496501  93358.5  39458
   11714.9  491475  93083.5  39793
   11735  487178  92898.5  40173
   11755.1  482116  92567.5  40501
   11775  476765  92171.5  40797
   11794.9  472307  91864.5  41114
   11814.9  467288  91376.5  41329
   11835  462686  90647.5  41392
   11845.4  460139  89784.5  41094
   11846.6  459797  89628.5  41036
   11847.5  459459  89467.5  40965
   11848.4  458824  89274.5  40869
   11849.6  458278  89014.5  40734
   11850.6  458144  88876.5  40670
   11851.5  457817  88657.5  40556
   11852.4  458525  88621.5  40514
   11853.6  458315  88295.5  40345
   11854.5  458780  88114.5  40220
   11855.4  458152  87707.5  39991
   11856.4  458110  87337.5  39756
   11857.6  457620  86589.5  39318
   11858.5  457659  86016.5  38937
   11859.4  457076  85133.5  38392
   11860.6  457536  83849.5  37503
   11861.6  456716  82312.5  36467
   11862.5  456372  80241.5  34967
   11863.4  455453  77428.5  32868
   11864.6  455509  71623.5  28418
   11865.5  455101  64626.5  23702
   11866.5  455697  55066.5  18450
   11867.4  455186  42683.5  13041
   11868.6  455799  26485.5  7367
   11869.5  454490  19330.5  5202
   11870.5  454796  17141.5  4592
   11871.4  454154  19220.5  5210
   11872.6  453192  24449.5  6768
   11873.5  453183  28414.5  8006
   11874.4  453376  31996.5  9206
   11875.4  453355  35662.5  10533
   11876.6  453295  39324.5  11986
   11877.5  453070  40301.5  12479
   11878.4  452802  39528.5  12375
   11879.4  452555  37680.5  11890
   11880.6  452475  35107.5  11169
   11881.5  452402  34378.5  10964
   11882.4  451937  34735.5  11088
   11883.7  451353  36010.5  11483
   11884.6  450875  36873.5  11762
   11885.5  450519  37479.5  11972
   11886.4  450273  38096.5  12188
   11887.6  450924  39158.5  12541
   11888.6  450792  39896.5  12773
   11889.5  450819  40628.5  13000
   11890.4  450783  41328.5  13209
   11891.6  449915  42533.5  13589
   11892.6  449871  43577.5  13952
   11893.5  450119  44429.5  14262
   11894.4  449461  44881.5  14480
   11895.6  449730  45152.3  14671.8
   11896.9  449104  45170.3  14746.8
   11898.4  449107  45310.4  14783
   11899.7  448947  45413.4  14779.2
   11901.2  450112  45821.6  14880.5
   11903  450221  46294.7  15038.9
   11904.6  450689  46634.9  15184.4
   11906.4  451109  46971.1  15337.9
   11908.3  452313  47133.4  15413.6
   11910.1  453098  46598.6  15238.3
   11912.3  454883  45556  14864
   11914.2  455769  44723.3  14566.9
   11916.3  457695  44418.7  14496.8
   11918.8  458432  44419.1  14628.8
   11921  460227  44298.5  14702.9
   11923.4  462585  43678  14543.1
   11925.9  464685  43028.5  14359.3
   11928.4  467194  42934  14319.6
   11930.9  469333  43022.6  14309
   11933.7  471977  43120.1  14260.5
   11936.4  474138  43563.8  14324.1
   11939.2  476701  43781.4  14383.7
   11942.3  477863  43457.1  14330.4
   11945.1  482547  43563.8  14412.2
   11948.2  486675  44243.5  14688.1
   11951.3  490120  45327.3  15095
   11954.8  493653  46126.1  15438
   11957.9  497580  46775  15729.1
   11961.3  500626  47596.9  16004.3
   11964.7  504742  48306.7  16232.5
   11968.5  508927  48976.7  16536.9
   11971.9  512898  49630.6  16946.3
   11975.6  517031  50231.6  17323.8
   11979.4  521811  51112.6  17680.3
   11983.1  524992  52129.7  18062
   11987.2  527980  52862.8  18253.7
   11991.3  535336  53724.9  18432.5
   11995.3  539161  54171.1  18458.4
   11999.4  544902  54455.2  18499.3
   12003.5  548771  54301.5  18492.3
   12007.9  553771  54141.7  18527.4
   12012.3  558806  54232  18661.7
   12016.7  565154  54927.3  19012.9
   12021.1  570382  55583.6  19350.2
   12025.8  576474  56283.9  19725.7
   12030.5  581588  56727.3  19988.2
   12035.3  587832  57392.7  20314.7
   12040  593189  58175.2  20683.4
   12045  599226  59035.7  21082.1
   12050.1  605586  59945.3  21492.9
   12055.2  609112  60653.8  21725.8
   12060.2  617907  61822.4  22117.8
   12065.3  624089  62544  22461.8
   12070.7  631655  63109.6  22706.9
   12076.1  636937  63965.3  22966.1
   12081.5  645038  65466  23463.4
   12086.9  652074  66703.8  23892.7
   12092.6  658566  67590.5  24318.2
   12098.3  664602  68093.3  24684.7
   12104.1  671814  68821.1  25111.3
   12109.8  678665  69842  25642.9
   12115.9  686970  71232.9  26361.7
   12121.6  694552  72228.8  26929.5
   12127.7  700811  72896.8  27331.4
   12133.8  707437  73814.8  27771.3
   12140.2  715749  74866.8  28190.4
   12146.3  722545  75316.8  28340.5
   12152.8  729823  75720.9  28507.7
   12159.2  737745  76225  28737
   12165.6  744773  77399.1  29267.3
   12172.4  753448  78979.3  29977.8
   12178.9  761763  80399.5  30635.3
   12185.7  770069  82004.7  31335.9
   12192.5  778636  83500.1  32050.6
   12199.6  785312  84522.3  32610.3
   12206.4  792787  85434.6  33103.2
   12213.5  801946  86431  33690.1
   12220.7  809685  87341.4  34282
   12227.8  816928  88120.8  34805.1
   12235  824105  89083.2  35349.2
   12242.5  831745  90488.7  36070.4
   12250  840438  92201.3  36836.7
   12257.5  848464  93829.8  37516.1
   12265.1  856661  95407.3  38253.5
   12272.6  864913  96554  38820.1
   12280.5  872777  97503.6  39351.7
   12288.4  881752  98590.3  39939.4
   12296.3  889392  99418.9  40494.1
   12304.2  896752  100363  41084.9
   12312.1  906553  101712  41849.9
   12320.4  914016  102950  42585.9
   12328.7  921733  104441  43425.9
   12336.6  929407  105930  44299.1
   12345.2  938626  107344  45127.3
   12353.5  947799  108912  45975.6
   12362.2  955526  110410  46809
   12370.5  963574  111868  47651.4
   12379.2  971883  113218  48445
   12387.9  979058  114326  49073.6
   12396.9  987682  115731  49881.3
   12405.6  995881  117105  50663
   12414.7  1.00309e+06  118291  51400.9
   12423.8  1.00996e+06  119603  52224.8
   12432.8  1.01865e+06  121301  53249.8
   12441.9  1.02852e+06  123236  54386.9
   12451.4  1.03784e+06  124955  55475
   12460.5  1.04372e+06  126157  56306.3
   12470  1.05234e+06  127681  57288.6
   12479.5  1.06059e+06  129096  58226
   12489  1.0678e+06  130315  59047.5
   12498.9  1.07446e+06  131437  59846
   12508.4  1.08264e+06  132825  60755.6
   12518.3  1.09076e+06  134356  61732.3
   12528.2  1.09868e+06  136005  62802.1
   12538.1  1.10559e+06  137558  63817
   12548.1  1.11291e+06  139256  64913.9
   12558.4  1.11987e+06  140901  66004.9
   12568.7  1.12816e+06  142656  67174
   12578.7  1.13621e+06  144245  68266.1
   12589.1  1.14358e+06  145707  69348.4
   12599.4  1.15049e+06  147046  70373.7
   12610.2  1.15657e+06  148360  71421.1
   12620.6  1.16481e+06  150037  72618.6
   12631.3  1.16999e+06  151419  73699.2
   12642.1  1.17837e+06  153285  75018.8
   12652.9  1.18569e+06  155085  76272.5
   12663.8  1.19182e+06  156672  77440.3
   12674.6  1.19807e+06  158174  78590.1
   12685.8  1.2054e+06  159796  79799.1
   12696.7  1.21079e+06  161112  80889.1
   12708  1.21922e+06  162888  82227.2
   12719.3  1.22293e+06  163970  83237.3
   12730.6  1.23014e+06  165597  84524.6
   12741.9  1.23684e+06  167269  85852
   12753.6  1.2426e+06  168918  87204.4
   12764.9  1.24601e+06  170260  88377.9
   12776.7  1.25298e+06  172081  89848.4
   12788.4  1.25912e+06  173809  91272.1
   12800.2  1.26475e+06  175405  92615.8
   12812  1.27057e+06  176948  93942.6
   12824.2  1.27739e+06  178674  95402.5
   12836  1.2811e+06  179971  96595.4
   12848.2  1.28754e+06  181682  98059.5
   12860.5  1.29313e+06  183321  99527.5
   12872.4  1.29653e+06  184705  100777
   12885.1  1.30259e+06  186538  102377