File: data/as2o3_10K_scan2.xdi
# XDI/1.0
# Column.1: energy eV
# Column.2: i0
# Column.3: itrans
# Column.4: irefer
# Beamline.name: SSRL 2-3
# Beamline.notes: vert slits = 0.6mm
# Detector.I0: N2 15cm
# Detector.I1: Ar 30cm
# Detector.I2: Ar 15cm
# Element.edge: K
# Element.symbol: As
# Mono.d_spacing: 3.13550
# Mono.name: Si(111)
# Mono.notes: unfocused, detuned 75%, clockwise at E=12000eV
# Sample.formula: As2O3
# Sample.name: As2O3 arsenious oxide
# Sample.prep: powder on tape (5 layers)
# Sample.reference: GaAs powder
# Sample.temperature: 10K
# Scan.start_time: 1997-04-19 19:47:10
# ///
#    Note: mono d_spacing is nominal!
#     exafs to K16, GaAs in IR
#     413  E XMU XMUR I0
#-------------
#   energy   i0   itrans  irefer
   11634.9  537571  61044.5  25044
   11654.9  532987  61103.5  25367
   11675.1  526702  60959.5  25611
   11695  520475  60795.5  25845
   11714.9  516373  60876.5  26170
   11735  510709  60748.5  26414
   11755.1  505582  60642.5  26667
   11775  500626  60506.5  26913
   11794.9  494793  60218.5  27087
   11814.9  490071  59859.5  27209
   11835  484753  58814.5  26987
   11845.4  481918  57331.5  26386
   11846.6  481801  57103.5  26278
   11847.5  481435  56878.5  26186
   11848.4  481410  56686.5  26089
   11849.6  480234  56211.5  25870
   11850.6  479770  55900.5  25725
   11851.5  479544  55544.5  25560
   11852.4  479792  55249.5  25407
   11853.6  479581  54654.5  25118
   11854.5  480184  54187.5  24891
   11855.4  479526  53581.5  24582
   11856.4  479931  52909.5  24239
   11857.6  479257  51670.5  23624
   11858.5  479441  50678.5  23124
   11859.4  478279  49305.5  22426
   11860.6  478709  47132.5  21309
   11861.6  477862  45016.5  20231
   11862.5  478077  42325.5  18826
   11863.4  476628  39066.5  17117
   11864.6  476806  32677.5  13760
   11865.5  476355  26651.5  10704
   11866.5  476795  20065.5  7581
   11867.4  476226  13082.5  4589
   11868.6  476982  5509.5  1738
   11869.5  476050  2377.5   706
   11870.5  475953   901.5   256
   11871.4  475026   591.5   166
   11872.6  474640   872.5   244
   11873.5  474020  1287.5   364
   11874.4  474891  1840.5   530
   11875.4  474186  2581.5   763
   11876.6  474883  3666.5  1118
   11877.5  474161  4184.5  1296
   11878.4  474115  4288.5  1344
   11879.4  473770  3925.5  1241
   11880.6  473682  3079.5   982
   11881.5  473263  2659.5   852
   11882.4  473364  2579.5   826
   11883.7  472494  2829.5   902.999
   11884.6  472035  3084.5   987
   11885.5  471236  3277.5  1051
   11886.4  471420  3450.5  1106
   11887.6  471420  3716.5  1195
   11888.6  471779  3947.5  1270
   11889.5  471288  4171.5  1342
   11890.4  471208  4384.5  1407
   11891.6  470730  4788.5  1538
   11892.6  470686  5197.5  1673
   11893.5  470627  5589.5  1802
   11894.4  470184  5877.5  1906
   11895.6  469808  6050.25  1977.76
   11896.9  469543  6089.29  1996.84
   11898.4  469758  6131.35  2014.99
   11899.7  469576  6175.44  2027.23
   11901.2  470192  6272.57  2052.54
   11903  470405  6461.72  2110.92
   11904.6  471279  6605.91  2162.39
   11906.4  471727  6750.12  2214.93
   11908.3  473373  6849.37  2254.55
   11910.1  473610  6644.65  2185.26
   11912.3  475954  6115.96  2008.03
   11914.2  476577  5669.3  1858.89
   11916.3  478583  5408.67  1772.82
   11918.8  479857  5400.08  1786.83
   11921  482414  5379.51  1794.92
   11923.4  484203  5086.97  1706.08
   11925.9  485391  4748.47  1594.32
   11928.4  487975  4617  1549.65
   11930.9  490768  4625.56  1548.04
   11933.7  493895  4590.14  1528.52
   11936.4  495887  4697.77  1555.07
   11939.2  498348  4761.42  1573.7
   11942.3  499631  4607.1  1526.41
   11945.1  503822  4475.81  1490.2
   11948.2  509068  4537.56  1514.06
   11951.3  511645  4826.33  1615.01
   11954.8  515035  5048.14  1697.02
   11957.9  519348  5171.98  1744.12
   11961.3  522932  5397.85  1823.3
   11964.7  527285  5567.75  1880.55
   11968.5  531225  5677.67  1922.88
   11971.9  535733  5818.64  1993.29
   11975.6  539704  5900.63  2044.78
   11979.4  544023  6072.65  2112.34
   11983.1  548698  6414.71  2232.98
   11987.2  550874  6665.79  2315.7
   11991.3  558722  6786.91  2344.5
   11995.3  562823  6867.05  2353.37
   11999.4  567818  6791.23  2319.32
   12003.5  573602  6578.44  2253.35
   12007.9  578525  6313.68  2170.46
   12012.3  582119  6135.95  2120.64
   12016.7  590086  6274.26  2182.9
   12021.1  595235  6437.59  2254.25
   12025.8  601672  6566.96  2315.66
   12030.5  607500  6592.35  2334.16
   12035.3  613834  6639.78  2365.73
   12040  619227  6766.23  2421.38
   12045  625414  6895.72  2477.11
   12050.1  630179  6998.24  2522.92
   12055.2  636115  7178.79  2587.8
   12060.2  645235  7381.38  2655.76
   12065.3  651791  7517.98  2713.8
   12070.7  658856  7415.63  2682.92
   12076.1  664519  7534.3  2724.11
   12081.5  670892  7965.01  2872.39
   12086.9  680134  8318.75  2997.74
   12092.6  685732  8451.51  3058.16
   12098.3  692125  8393.31  3059.67
   12104.1  699544  8338.14  3061.25
   12109.8  707420  8522.01  3147.91
   12115.9  715248  8888.89  3307.65
   12121.6  722779  9066.82  3397.47
   12127.7  729621  9037.77  3408.36
   12133.8  737101  9188.75  3475.33
   12140.2  745066  9492.77  3595.38
   12146.3  753372  9460.82  3577.51
   12152.8  759795  9343.89  3537.71
   12159.2  767560  9078  3438
   12165.6  774657  9294.14  3532.35
   12172.4  785224  9761.32  3724.79
   12178.9  793096  10005.5  3832.31
   12185.7  801142  10392.8  3989.9
   12192.5  808690  10791  4161.57
   12199.6  816084  10969.3  4246.32
   12206.4  823574  11045.6  4295.15
   12213.5  833840  11074  4329.05
   12220.7  841315  11156.4  4393.03
   12227.8  850564  11165.8  4427.09
   12235  858023  11210.2  4470.23
   12242.5  867373  11564.7  4632.44
   12250  874384  12063.2  4841.74
   12257.5  883091  12495.8  5020.1
   12265.1  891242  12930.4  5207.55
   12272.6  899746  13029  5265.08
   12280.5  906853  12940.6  5245.68
   12288.4  917973  13102.3  5335.36
   12296.3  925904  13042  5336.12
   12304.2  934304  13162.7  5414.96
   12312.1  942103  13391.4  5533.87
   12320.4  951304  13691.2  5695.86
   12328.7  960302  14141.1  5913.93
   12336.6  967703  14554.9  6112.07
   12345.2  977413  14544.8  6142.3
   12353.5  985870  14653.7  6215.6
   12362.2  993818  15065.7  6417.98
   12370.5  1.00297e+06  15464.6  6620.43
   12379.2  1.01191e+06  15707.6  6750.97
   12387.9  1.01919e+06  15775.7  6805.58
   12396.9  1.02769e+06  16071.8  6961.27
   12405.6  1.03678e+06  16440.9  7146.04
   12414.7  1.04495e+06  16570  7231.89
   12423.8  1.05491e+06  16746.2  7347.82
   12432.8  1.06117e+06  17045.3  7516.81
   12441.9  1.07098e+06  17501.6  7763.89
   12451.4  1.0796e+06  17867.8  7966.05
   12460.5  1.08535e+06  18037.1  8086.28
   12470  1.09475e+06  18383.4  8291.6
   12479.5  1.10286e+06  18632.8  8450.98
   12489  1.11152e+06  18850.2  8584.45
   12498.9  1.11601e+06  18981.6  8678.99
   12508.4  1.12626e+06  19223  8832.62
   12518.3  1.13312e+06  19407.5  8955.32
   12528.2  1.1421e+06  19815  9190.1
   12538.1  1.1493e+06  20111.5  9376.95
   12548.1  1.15799e+06  20497.1  9605.88
   12558.4  1.16344e+06  20926.7  9857.89
   12568.7  1.17004e+06  21266.3  10063
   12578.7  1.17797e+06  21623  10287.2
   12589.1  1.18619e+06  21920.7  10479.4
   12599.4  1.19488e+06  22088.4  10617.7
   12610.2  1.20051e+06  22257.1  10767.1
   12620.6  1.21012e+06  22653.9  11018.6
   12631.3  1.21647e+06  22986.7  11237.1
   12642.1  1.22194e+06  23318.6  11457.8
   12652.9  1.22873e+06  23806.5  11766.5
   12663.8  1.23491e+06  24243.4  12033.3
   12674.6  1.2429e+06  24543.3  12244.1
   12685.8  1.24624e+06  24794.3  12428.1
   12696.7  1.25562e+06  25078.3  12638.1
   12708  1.25871e+06  25346.3  12846.2
   12719.3  1.26798e+06  25646.4  13077.4
   12730.6  1.27485e+06  25936.5  13294.6
   12741.9  1.27905e+06  26298.6  13550
   12753.6  1.28477e+06  26787.7  13886.4
   12764.9  1.29074e+06  27173.9  14178.9
   12776.7  1.29854e+06  27625.1  14481.4
   12788.4  1.30322e+06  27969.4  14750.1
   12800.2  1.30774e+06  28331.7  15020.8
   12812  1.31361e+06  28631  15263.6
   12824.2  1.31739e+06  28958.3  15530.5
   12836  1.32315e+06  29315.7  15809.4
   12848.2  1.33091e+06  29770.1  16131.4
   12860.5  1.33608e+06  30164.5  16442.5
   12872.4  1.34046e+06  30502  16725.7
   12885.1  1.34187e+06  30862.5  17014