File: data/as2o3_roomt_scan3.xdi
# XDI/1.0
# Column.1: energy eV
# Column.2: i0
# Column.3: itrans
# Column.4: irefer
# Beamline.name: SSRL 4-1
# Detector.I0: N2 15cm
# Detector.I1: N2 30cm
# Detector.I2: Ar 15cm
# Element.edge: K
# Element.symbol: As
# Mono.d_spacing: 3.13550
# Mono.name: Si(111)
# Mono.notes: unfocused, detuned 40%,counter clockwise at E=12000eV
# Sample.formula: As2O3
# Sample.name: As2O3 arsenious oxide
# Sample.prep: powder, mixed 1:60 with B(OH)3 by wt
# Sample.reference: GaAs powder
# Sample.temperature: room temperature
# Scan.start_time: 1997-01-19 14:12:16
# ///
#    Note: mono d_spacing is nominal!
#     exafs to K15, GaAs in IR
#     320  E XMU XMUR I0
#-------------
#   energy   i0   itrans  irefer
   11650  176131  276780  321037
   11670  175938  277867  324041
   11690  174944  277666  325579
   11710  174176  277839  327511
   11730  173516  278138  329623
   11750  172062  277174  330206
   11770  170650  276190  330783
   11790  169596  275770  331974
   11810  169402  276625  334623
   11830  168578  276067  335365
   11850  167686  273764  332544
   11851.5  166888  272053  330225
   11853  167434  272522  330478
   11854.5  166082  269675  326592
   11856.1  165998  268698  324745
   11857.6  166070  267773  322733
   11859.1  166532  266860  320157
   11860.6  166249  264079  314495
   11862.1  165954  260038  305669
   11863.6  165354  252617  287780
   11865.2  165623  241175  256164
   11866.7  166613  217426  205964
   11868.2  166602  175965  145458
   11869.7  165893  137155  101873
   11871.2  166452  119295  87946
   11872.7  166265  128274  96130
   11874.2  166017  148929  114543
   11875.8  165096  163319  129721
   11877.3  165981  173206  141378
   11878.8  166680  175321  146535
   11880.3  164780  169213  143446
   11881.8  165077  166126  141925
   11883.3  165481  167291  143282
   11884.8  166084  171039  146395
   11886.4  165861  173832  148890
   11887.9  165976  176777  151585
   11889.4  165455  179219  153605
   11890.9  165338  182516  156211
   11892.4  165114  185145  158448
   11893.9  164984  187472  160938
   11895.5  164272  188027  162403
   11897  165445  189738  164727
   11898.5  164310  188792  164181
   11900  165557  190706  165542
   11902.6  164515  190746  165062
   11905.2  165160  192738  167026
   11908  166487  194797  169187
   11910.8  164437  191188  166022
   11913.6  165302  189886  164375
   11916.6  166026  189000  163559
   11919.6  165615  187555  163624
   11922.7  165959  186500  163962
   11925.9  166829  185499  163550
   11929.2  166600  183884  162112
   11932.5  166272  182786  160417
   11936  168043  184415  160636
   11939.4  168850  185129  160415
   11943  169252  185140  160657
   11946.7  169886  185993  161963
   11950.4  171124  188619  164780
   11954.2  172288  191244  167560
   11958.1  174374  194550  171237
   11962  173607  194716  171582
   11966  175350  197524  173778
   11970.2  176261  199358  176085
   11974.3  178499  202627  180966
   11978.6  179654  204760  184240
   11982.9  180903  207279  186786
   11987.3  182429  209932  188822
   11991.8  183753  211962  189376
   11996.4  185411  214097  189635
   12001  187287  216028  190229
   12005.8  188809  217174  191537
   12010.6  190029  217835  192894
   12015.4  192254  219875  195673
   12020.4  195045  222788  199219
   12025.4  195845  223490  200993
   12030.5  196998  224745  203136
   12035.7  199797  228140  206998
   12040.9  202760  232126  211356
   12046.3  203928  234298  213968
   12051.7  207358  239173  219047
   12057.2  209334  242339  221517
   12062.7  211784  245786  224175
   12068.4  215141  250079  228604
   12074.1  216677  252292  230509
   12079.9  218994  255650  232682
   12085.7  221514  259314  235348
   12091.7  224726  263731  239365
   12097.7  225849  265522  242278
   12103.8  228535  269298  247183
   12110  232364  274573  253223
   12116.2  234840  278303  258202
   12122.6  237581  282157  263363
   12129  240570  286117  268415
   12135.4  243886  290256  272805
   12142  246325  293072  275105
   12148.6  248849  295925  277249
   12155.4  252549  300316  281106
   12162.1  255289  303995  284682
   12169  258769  309035  289906
   12175.9  261644  313693  295005
   12183  266836  321222  302556
   12190  268532  324411  306064
   12197.2  273021  330772  313125
   12204.5  275571  334560  317633
   12211.8  279640  340021  324016
   12219.2  282850  344310  329811
   12226.7  284498  346809  333852
   12234.2  288681  352660  340642
   12241.9  292389  358186  347001
   12249.6  296985  365089  353988
   12257.3  300642  370894  359314
   12265.2  304008  376310  364728
   12273.1  308642  383034  371753
   12281.1  313397  389662  378762
   12289.2  315865  393278  383245
   12297.4  319591  398322  389507
   12305.6  323256  403338  395751
   12314  326728  408324  401939
   12322.4  332365  416292  411170
   12330.8  334239  419843  416161
   12339.4  339428  427816  425592
   12348  343402  434317  433377
   12356.7  346779  439647  440134
   12365.5  352407  448543  449037
   12374.3  355943  454115  456331
   12383.3  359888  460154  463169
   12392.3  362641  464570  468404
   12401.4  366648  470659  475458
   12410.5  371342  477886  483817
   12419.8  377478  487122  494511
   12429.1  381390  493724  502733
   12438.5  384103  498803  509609
   12447.9  389434  507312  520260
   12457.5  395012  515985  530929
   12467.1  397514  520555  537357
   12476.8  400635  525725  544451
   12486.6  405027  532512  552973
   12496.4  408580  538304  560355
   12506.4  412956  545323  569018
   12516.4  418916  554693  580246
   12526.4  421754  560101  587508
   12536.6  427627  569771  599148
   12546.8  432672  578318  609739
   12557.1  437840  587043  620648
   12567.5  441088  593095  628911
   12578  445995  601307  639550
   12588.5  449175  607116  647832
   12599.2  453066  613899  657359
   12609.9  457521  621597  667849
   12620.6  463777  631823  681052
   12631.5  466297  637157  688914
   12642.4  471309  646000  700498
   12653.4  474741  652688  709717
   12664.5  480820  663039  722907
   12675.6  484119  669473  731971
   12686.8  489792  679149  744681
   12698.1  493613  686171  754678
   12709.5  497712  693700  765230
   12715.2  501126  699368  772687