File: data/as2o5_100K_scan2.xdi
# XDI/1.0
# Column.1: energy eV
# Column.2: i0
# Column.3: itrans
# Column.4: irefer
# Beamline.name: SSRL 2-3
# Beamline.notes: vert slits = 0.6mm
# Detector.I0: N2 15cm
# Detector.I1: Ar 30cm
# Detector.I2: Ar 15cm
# Element.edge: K
# Element.symbol: As
# Mono.d_spacing: 3.13550
# Mono.name: Si(111)
# Mono.notes: unfocused, detuned 75%, clockwise at E=12000eV
# Sample.formula: As2O5
# Sample.name: As2O5 arsenic (V) oxide
# Sample.prep: powder on tape (5 layers)
# Sample.reference: GaAs powder
# Sample.temperature: 100K
# Scan.start_time: 1997-04-19 21:41:34
# ///
#    Note: mono d_spacing is nominal!
#     exafs to K16, GaAs in IR
#     413  E XMU XMUR I0
#-------------
#   energy   i0   itrans  irefer
   11634.9  528022  93707.5  38137
   11654.9  522927  93521.5  38516
   11675.1  517401  93230.5  38854
   11695  511643  92864.5  39151
   11714.9  507374  92730.5  39548
   11735  502147  92451.5  39878
   11755.1  496472  92041.5  40166
   11775  491888  91828.5  40544
   11794.9  486878  91465.5  40823
   11814.9  481735  91005.5  41058
   11835  477294  90407.5  41172
   11845.4  474630  89653.5  40950
   11846.6  474381  89553.5  40906
   11847.5  473198  89259.5  40778
   11848.4  473664  89296.5  40789
   11849.6  472180  88931.5  40613
   11850.6  472671  88921.5  40615
   11851.5  471569  88611.5  40460
   11852.4  471948  88609.5  40439
   11853.6  471756  88391.5  40303
   11854.5  472380  88342.5  40256
   11855.4  472022  88108.5  40112
   11856.4  471956  87893.5  39964
   11857.6  471293  87421.5  39652
   11858.5  471872  87226.5  39465
   11859.4  470629  86652.5  39089
   11860.6  471063  86108.5  38561
   11861.6  470251  85430.5  37973
   11862.5  470089  84679.5  37157
   11863.4  469383  83740.5  36032
   11864.6  469045  82065.5  33285
   11865.5  468340  80315.5  30209
   11866.5  469054  78302.5  26744
   11867.4  468716  75148.5  23091
   11868.6  468503  68610.5  18992
   11869.5  468270  61464.5  16443
   11870.5  467984  51651.5  13712
   11871.4  467345  40783.5  10879
   11872.6  466999  24797.5  6743
   11873.5  466471  16070.5  4453
   11874.4  466824  11588.5  3287
   11875.4  466830  10848.5  3172
   11876.6  466951  14003.5  4250
   11877.5  466469  17373.5  5362
   11878.4  466410  21164.5  6615.01
   11879.4  466044  24434.5  7701
   11880.6  466248  28216.5  8973
   11881.5  465371  29937.5  9564
   11882.4  465081  30890.5  9877.99
   11883.7  464316  31405.5  10039
   11884.6  463700  31509.5  10072
   11885.5  463149  31561.5  10090
   11886.4  463625  31697.5  10148
   11887.6  463534  31928.5  10240
   11888.6  463226  32177.5  10319
   11889.5  463646  32593.5  10450
   11890.4  462978  33040.5  10579
   11891.6  463001  33847.5  10834
   11892.6  462096  34382.5  11012
   11893.5  462460  34954.5  11218
   11894.4  461720  35428.5  11423
   11895.6  461894  36070.3  11708.8
   11896.9  461687  36529.3  11923.8
   11898.4  462082  37088.4  12118
   11899.7  461471  37650.5  12275.2
   11901.2  462258  38795.6  12619.5
   11903  462307  40297.7  13105.9
   11904.6  463182  41500.9  13523.4
   11906.4  463605  42776.1  13969.9
   11908.3  465015  43975.4  14392.5
   11910.1  465408  44793.6  14662.3
   11912.3  467470  45248.9  14787
   11914.2  468701  44986.3  14667.9
   11916.3  470005  44218.7  14440.8
   11918.8  471348  42949.1  14143.8
   11921  473726  41877.5  13901.9
   11923.4  475356  40888  13631.1
   11925.9  476871  40234.5  13442.3
   11928.4  479836  39825  13299.7
   11930.9  481502  39232.5  13081
   11933.7  485084  38636.2  12799.5
   11936.4  487383  38155.8  12570.1
   11939.2  489654  37984.4  12493.7
   11942.3  491327  37891.1  12500.4
   11945.1  495761  38176.8  12647.2
   11948.2  500652  38562.6  12815.1
   11951.3  503728  38938.3  12983
   11954.8  506398  39452.1  13214
   11957.9  510788  40130  13511.1
   11961.3  514881  40795.8  13737.3
   11964.7  518652  41356.7  13914.6
   11968.5  522529  41933.7  14170.9
   11971.9  527195  42719.6  14588.3
   11975.6  531299  43748.6  15098.8
   11979.4  535445  44876.7  15538.3
   11983.1  539910  45891.7  15912
   11987.2  542268  46518.8  16093.7
   11991.3  549442  47389.9  16293.5
   11995.3  554011  48024.1  16398.4
   11999.4  558910  48614.2  16532.3
   12003.5  564404  49152.4  16758.3
   12007.9  569105  49543.7  16970.5
   12012.3  571724  49702  17117.6
   12016.7  580874  50343.2  17438.9
   12021.1  585624  50647.6  17648.2
   12025.8  591848  50982  17885.7
   12030.5  597885  51115.4  18027.2
   12035.3  604222  51273.8  18167.7
   12040  609731  51518.2  18331.4
   12045  615902  52134.7  18631.1
   12050.1  620751  52876.2  18971.9
   12055.2  625133  53517.8  19200.8
   12060.2  634715  54499.4  19522.8
   12065.3  640759  55195  19824.8
   12070.7  647371  55966.6  20154.9
   12076.1  653612  56786.3  20416.1
   12081.5  660694  57632  20662.4
   12086.9  667038  58398.7  20939.7
   12092.6  675098  59355.5  21364.2
   12098.3  681156  60181.3  21824.7
   12104.1  687770  61057.1  22289.2
   12109.8  695153  62022  22781.9
   12115.9  703212  63028.9  23335.7
   12121.6  710935  63966.8  23847.5
   12127.7  717944  64898.8  24356.4
   12133.8  725612  65919.7  24814.3
   12140.2  732731  66802.8  25163.4
   12146.3  740910  67720.8  25502.5
   12152.8  747383  68372.9  25767.7
   12159.2  756013  69099  26068
   12165.6  762900  69790.2  26421.4
   12172.4  772298  70747.3  26883.8
   12178.9  780842  71874.5  27417.3
   12185.7  788328  72882.7  27872.9
   12192.5  796208  73773  28334.6
   12199.6  803661  74630.3  28813.3
   12206.4  811241  75711.7  29357.2
   12213.5  820336  77059  30056
   12220.7  828167  77992.4  30628
   12227.8  837420  78966.8  31210.1
   12235  845711  80131.2  31830.2
   12242.5  854242  81308.8  32444.5
   12250  861792  82425.2  32962.7
   12257.5  867525  83221.8  33322.1
   12265.1  877157  84500.4  33916.6
   12272.6  886641  85783.9  34545.1
   12280.5  895279  87017.6  35149.7
   12288.4  904455  88443.3  35881.4
   12296.3  912516  89653.9  36562.1
   12304.2  921480  90925.7  37271
   12312.1  929565  91987.5  37892.9
   12320.4  937265  92992.3  38521.9
   12328.7  947001  94320  39276.9
   12336.6  954479  95396.9  39945.1
   12345.2  963623  96723.8  40727.3
   12353.5  971393  97854.7  41362.6
   12362.2  980034  99150.7  42090
   12370.5  988339  100352  42797.4
   12379.2  996898  101705  43558
   12387.9  1.00505e+06  102894  44221.6
   12396.9  1.01311e+06  104111  44915.3
   12405.6  1.02235e+06  105465  45677.1
   12414.7  1.02993e+06  106741  46404.9
   12423.8  1.03871e+06  108296  47317.8
   12432.8  1.04477e+06  109451  48076.8
   12441.9  1.05448e+06  110886  48975.9
   12451.4  1.06046e+06  111894  49718.1
   12460.5  1.06955e+06  113236  50580.3
   12470  1.07691e+06  114603  51462.6
   12479.5  1.08616e+06  116187  52452
   12489  1.09462e+06  117696  53389.4
   12498.9  1.09995e+06  118896  54167
   12508.4  1.10788e+06  120293  55049.6
   12518.3  1.11534e+06  121651  55941.3
   12528.2  1.12177e+06  122841  56757.1
   12538.1  1.12951e+06  124231  57680
   12548.1  1.13978e+06  125895  58718.9
   12558.4  1.1454e+06  127143  59588.9
   12568.7  1.15358e+06  128663  60613
   12578.7  1.16039e+06  129968  61556.2
   12589.1  1.16795e+06  131436  62591.4
   12599.4  1.17439e+06  132709  63561.7
   12610.2  1.18176e+06  134146  64607.1
   12620.6  1.19052e+06  135787  65770.6
   12631.3  1.19704e+06  137273  66851.2
   12642.1  1.20293e+06  138734  67925.8
   12652.9  1.20937e+06  140130  68955.5
   12663.8  1.21554e+06  141435  69948.3
   12674.6  1.22207e+06  142840  70992.1
   12685.8  1.22739e+06  144161  72024.1
   12696.7  1.23601e+06  145869  73266.1
   12708  1.24021e+06  147111  74294.2
   12719.3  1.25079e+06  149142  75730.4
   12730.6  1.25517e+06  150472  76834.6
   12741.9  1.26212e+06  152113  78093
   12753.6  1.26623e+06  153411  79228.4
   12764.9  1.27085e+06  154687  80327.9
   12776.7  1.27801e+06  156280  81622.4
   12788.4  1.28501e+06  157937  82950.1
   12800.2  1.29034e+06  159324  84148.8
   12812  1.29508e+06  160714  85356.6
   12824.2  1.2987e+06  162017  86526.4
   12836  1.30483e+06  163546  87844.4
   12848.2  1.31269e+06  165321  89258.4
   12860.5  1.31477e+06  166428  90364.5
   12872.4  1.31923e+06  167895  91661.7
   12885.1  1.32558e+06  169632  93149