File: data/as2o5_100K_scan3.xdi
# XDI/1.0
# Column.1: energy eV
# Column.2: i0
# Column.3: itrans
# Column.4: irefer
# Beamline.name: SSRL 2-3
# Beamline.notes: vert slits = 0.6mm
# Detector.I0: N2 15cm
# Detector.I1: Ar 30cm
# Detector.I2: Ar 15cm
# Element.edge: K
# Element.symbol: As
# Mono.d_spacing: 3.13550
# Mono.name: Si(111)
# Mono.notes: unfocused, detuned 75%, clockwise at E=12000eV
# Sample.formula: As2O5
# Sample.name: As2O5 arsenic (V) oxide
# Sample.prep: powder on tape (5 layers)
# Sample.reference: GaAs powder
# Sample.temperature: 100K
# Scan.start_time: 1997-04-19 21:41:34
# ///
#    Note: mono d_spacing is nominal!
#     exafs to K16, GaAs in IR
#     413  E XMU XMUR I0
#-------------
#   energy   i0   itrans  irefer
   11634.9  523836  93061.5  37898
   11654.9  518803  92865.5  38282
   11675.1  514093  92710.5  38679
   11695  508065  92281.5  38947
   11714.9  503134  92074.5  39305
   11735  498999  91977.5  39718
   11755.1  493115  91513.5  39969
   11775  488571  91293.5  40345
   11794.9  483558  90935.5  40635
   11814.9  478146  90410.5  40834
   11835  473419  89736.5  40903
   11845.4  470304  88909.5  40647
   11846.6  470798  88938.5  40658
   11847.5  470319  88792.5  40597
   11848.4  469866  88624.5  40519
   11849.6  468827  88359.5  40382
   11850.6  468792  88260.5  40341
   11851.5  468565  88128.5  40261
   11852.4  468739  88042.5  40211
   11853.6  469031  87928.5  40136
   11854.5  469002  87744.5  40019
   11855.4  468404  87481.5  39861
   11856.4  468534  87291.5  39716
   11857.6  468612  86946.5  39457
   11858.5  467762  86497.5  39157
   11859.4  467294  86064.5  38811
   11860.6  467323  85436.5  38261
   11861.6  467288  84881.5  37699
   11862.5  466265  83963.5  36788
   11863.4  466019  83073.5  35595
   11864.6  465506  81316.5  32699
   11865.5  465634  79617.5  29546
   11866.5  465627  77424.5  26053
   11867.4  465633  74198.5  22504
   11868.6  466072  67330.5  18507
   11869.5  465107  60070.5  16053
   11870.5  464609  49910.5  13264
   11871.4  464613  39036.5  10438
   11872.6  463529  23497.5  6409
   11873.5  463930  15174.5  4219
   11874.4  463425  11225.5  3199
   11875.4  463938  10883.5  3201
   11876.6  463636  14246.5  4341
   11877.5  463085  17671.5  5475
   11878.4  463153  21480.5  6730
   11879.4  463028  24698.5  7803
   11880.6  462221  28287.5  9018.99
   11881.5  462348  29964.5  9588
   11882.4  461941  30814.5  9876
   11883.7  461719  31298.5  10022
   11884.6  461120  31391.5  10048
   11885.5  460716  31447.5  10072
   11886.4  460240  31538.5  10123
   11887.6  460687  31811.5  10225
   11888.6  460285  32060.5  10304
   11889.5  460739  32487.5  10432
   11890.4  460641  32975.5  10578
   11891.6  460501  33766.5  10821
   11892.6  460472  34371.5  11028
   11893.5  460197  34886.5  11219
   11894.4  459386  35355.5  11421
   11895.6  459368  35957.3  11696.8
   11896.9  459181  36410.3  11905.8
   11898.4  459603  36980.3  12102
   11899.7  459229  37572.4  12272.2
   11901.2  459485  38686.6  12604.5
   11903  460169  40233.7  13100.9
   11904.6  461108  41415.9  13509.4
   11906.4  461571  42681.1  13967.9
   11908.3  462579  43836.4  14374.6
   11910.1  463083  44644.6  14639.2
   11912.3  464969  45068  14754
   11914.2  465924  44757.3  14622.9
   11916.3  468292  44077.7  14414.8
   11918.8  468930  42760.1  14109.8
   11921  470893  41660.5  13856.9
   11923.4  472882  40715  13594.1
   11925.9  474625  40091.5  13415.3
   11928.4  476627  39615  13260.7
   11930.9  479106  39078.6  13053
   11933.7  482732  38496.2  12783.5
   11936.4  484582  37980.8  12538.1
   11939.2  486828  37811.4  12458.7
   11942.3  488404  37714.1  12472.4
   11945.1  493099  38024.8  12622.2
   11948.2  497661  38375.6  12779.1
   11951.3  500334  38722.3  12944
   11954.8  503481  39290.1  13185
   11957.9  508309  39994  13489.1
   11961.3  511782  40610.9  13704.3
   11964.7  515683  41175.8  13886.6
   11968.5  519679  41761.7  14140.9
   11971.9  524068  42530.6  14560.3
   11975.6  527585  43522.6  15047.8
   11979.4  532554  44698.7  15515.3
   11983.1  536290  45658.7  15871
   11987.2  538888  46305.8  16044.7
   11991.3  546316  47191.9  16253.5
   11995.3  551369  47891.1  16375.4
   11999.4  555932  48429.2  16494.3
   12003.5  560865  48930.5  16706.4
   12007.9  565119  49278.7  16908.4
   12012.3  569726  49606  17111.6
   12016.7  577914  50167.3  17409.9
   12021.1  582430  50455.6  17614.2
   12025.8  588991  50811  17858.7
   12030.5  594159  50871.3  17967.2
   12035.3  600428  51026.8  18106.7
   12040  605935  51276.2  18278.4
   12045  612410  51936.7  18594.1
   12050.1  617865  52732.2  18948.9
   12055.2  622084  53341.8  19161.8
   12060.2  631146  54296.4  19478.8
   12065.3  637861  55043  19813.8
   12070.7  644341  55806.6  20138.9
   12076.1  649828  56551.3  20365.1
   12081.5  657500  57454  20646.4
   12086.9  663593  58195.7  20913.7
   12092.6  672547  59210.5  21354.2
   12098.3  678154  60007.3  21798.7
   12104.1  685214  60937.1  22283.3
   12109.8  691567  61815  22746.9
   12115.9  699761  62828.9  23288.7
   12121.6  707406  63737.8  23799.5
   12127.7  714024  64657.7  24294.4
   12133.8  722247  65702.7  24776.3
   12140.2  729447  66605.8  25123.4
   12146.3  736893  67468.8  25446.5
   12152.8  744968  68241.9  25751.7
   12159.2  752323  68872  26031
   12165.6  759223  69551.2  26370.4
   12172.4  768526  70525.3  26844.8
   12178.9  776563  71584.5  27342.3
   12185.7  784971  72683.7  27835.9
   12192.5  792512  73535.1  28275.6
   12199.6  799975  74387.3  28759.3
   12206.4  807784  75479.6  29309.1
   12213.5  817085  76858  30021
   12220.7  824954  77791.4  30599
   12227.8  832862  78659.8  31135.1
   12235  840450  79750.2  31723.2
   12242.5  849064  80927.8  32346.5
   12250  857610  82130.2  32897.7
   12257.5  864907  83081.8  33298.1
   12265.1  873215  84225.3  33853.5
   12272.6  882243  85451.9  34447.1
   12280.5  889334  86565.6  35025.7
   12288.4  899700  88078.3  35773.4
   12296.3  906158  89169  36400.1
   12304.2  916587  90561.7  37179.9
   12312.1  924705  91627.5  37796.9
   12320.4  932640  92644.2  38432.9
   12328.7  941048  93841.1  39132.9
   12336.6  950139  95115.9  39874.1
   12345.2  958011  96284.8  40565.3
   12353.5  965633  97405.7  41240.6
   12362.2  972934  98560.6  41891
   12370.5  982470  99900.7  42660.5
   12379.2  991135  101270  43428
   12387.9  998734  102393  44067.6
   12396.9  1.00774e+06  103687  44797.3
   12405.6  1.01582e+06  104927  45510
   12414.7  1.02341e+06  106211  46259.9
   12423.8  1.03404e+06  107937  47239.8
   12432.8  1.04027e+06  109122  48012.8
   12441.9  1.04948e+06  110480  48865.9
   12451.4  1.05736e+06  111703  49706
   12460.5  1.06399e+06  112817  50468.3
   12470  1.07267e+06  114312  51416.6
   12479.5  1.08276e+06  115991  52442
   12489  1.09037e+06  117385  53317.5
   12498.9  1.09744e+06  118794  54200
   12508.4  1.10398e+06  120030  55000.6
   12518.3  1.11134e+06  121382  55895.3
   12528.2  1.11832e+06  122619  56747.1
   12538.1  1.12718e+06  124138  57718
   12548.1  1.13409e+06  125449  58583.9
   12558.4  1.14153e+06  126835  59538.9
   12568.7  1.14887e+06  128287  60539
   12578.7  1.15693e+06  129744  61529.2
   12589.1  1.16434e+06  131183  62539.4
   12599.4  1.17224e+06  132613  63585.7
   12610.2  1.17846e+06  133925  64576.1
   12620.6  1.1864e+06  135444  65680.6
   12631.3  1.19352e+06  137016  66811.2
   12642.1  1.20034e+06  138596  67933.8
   12652.9  1.2057e+06  139864  68915.5
   12663.8  1.21123e+06  141080  69859.2
   12674.6  1.21757e+06  142481  70915.1
   12685.8  1.22528e+06  144082  72073.1
   12696.7  1.23331e+06  145742  73292.1
   12708  1.23849e+06  147090  74367.2
   12719.3  1.24804e+06  149004  75753.4
   12730.6  1.25295e+06  150418  76902.6
   12741.9  1.2577e+06  151753  78018
   12753.6  1.26305e+06  153247  79252.4
   12764.9  1.2696e+06  154763  80444.9
   12776.7  1.28026e+06  156758  81956.4
   12788.4  1.28423e+06  158017  83107
   12800.2  1.28787e+06  159228  84206.8
   12812  1.29471e+06  160869  85554.6
   12824.2  1.29676e+06  161973  86634.4
   12836  1.30353e+06  163595  87956.4
   12848.2  1.31134e+06  165368  89387.4
   12860.5  1.31278e+06  166403  90461.6
   12872.4  1.3183e+06  168004  91835.8
   12885.1  1.32269e+06  169488  93195