File: data/as2o5_10K_scan1.xdi
# XDI/1.0
# Column.1: energy eV
# Column.2: i0
# Column.3: itrans
# Column.4: irefer
# Beamline.name: SSRL 2-3
# Beamline.notes: vert slits = 0.6mm
# Detector.I0: N2 15cm
# Detector.I1: Ar 30cm
# Detector.I2: Ar 15cm
# Element.edge: K
# Element.symbol: As
# Mono.d_spacing: 3.13550
# Mono.name: Si(111)
# Mono.notes: unfocused, detuned 75%, clockwise at E=12000eV
# Sample.formula: As2O5
# Sample.name: As2O5 arsenic (V) oxide
# Sample.prep: powder on tape (5 layers)
# Sample.reference: GaAs powder
# Sample.temperature: 10K
# Scan.start_time: 1997-04-19 18:40:39
# ///
#    Note: mono d_spacing is nominal!
#     exafs to K16, GaAs in IR
#     413  E XMU XMUR I0
#-------------
#   energy   i0   itrans  irefer
   11634.9  540374  96003.5  39417
   11654.9  535092  95760.5  39783
   11675.1  530232  95584.5  40185
   11695  524671  95269.5  40509
   11714.9  518899  94903.5  40815
   11735  513383  94562.5  41140
   11755.1  508808  94391.5  41545
   11775  502989  93954.5  41824
   11794.9  498264  93656.5  42168
   11814.9  493540  93274.5  42449
   11835  488232  92512.5  42503
   11845.4  486043  91923.5  42345
   11846.6  485701  91764.5  42282
   11847.5  486343  91860.5  42326
   11848.4  485587  91669.5  42240
   11849.6  485546  91546.5  42180
   11850.6  484299  91251.5  42043
   11851.5  483974  91106.5  41961
   11852.4  483599  90930.5  41858
   11853.6  484415  90928.5  41832
   11854.5  484595  90801.5  41757
   11855.4  484037  90547.5  41603
   11856.4  483143  90186.5  41397
   11857.6  483236  89907.5  41168
   11858.5  483006  89590.5  40951
   11859.4  482731  89212.5  40669
   11860.6  482362  88597.5  40150
   11861.6  481681  87991.5  39634
   11862.5  482378  87492.5  39022
   11863.4  480918  86531.5  38033
   11864.6  480030  84999.5  35839
   11865.5  479178  83452.5  33171
   11866.5  479808  81822.5  29972
   11867.4  479435  79293.5  26158
   11868.6  479847  74168.5  21510
   11869.5  479157  68448.5  18794
   11870.5  479434  60336.5  16189
   11871.4  478285  50073.5  13410
   11872.6  478139  32834.5  8919
   11873.5  477399  21695.5  5981
   11874.4  478058  14640.5  4100
   11875.4  477294  11345.5  3251
   11876.6  478249  12801.5  3826
   11877.5  476865  15810.5  4839
   11878.4  477296  19645.5  6113
   11879.4  476209  23228.5  7311
   11880.6  476216  27831.5  8866
   11881.5  475026  30090.5  9643
   11882.4  475861  31607.5  10161
   11883.7  474950  32573.5  10480
   11884.6  474939  32827.5  10554
   11885.5  473967  32890.5  10571
   11886.4  473571  32969.5  10618
   11887.6  473316  33181.5  10700
   11888.6  473835  33438.5  10792
   11889.5  473725  33763.5  10895
   11890.4  474081  34226.5  11039
   11891.6  473316  34986.5  11268
   11892.6  473459  35638.5  11480
   11893.5  473061  36198.5  11677
   11894.4  472378  36710.5  11880
   11895.6  472555  37404.2  12194.8
   11896.9  472034  37901.3  12438.8
   11898.4  472196  38432.4  12647
   11899.7  471990  38926.4  12791.2
   11901.2  472910  40032.6  13114.5
   11903  472759  41523.7  13591.9
   11904.6  474026  42814.9  14037.4
   11906.4  474063  44105.1  14500.9
   11908.3  475697  45399.4  14964.5
   11910.1  475902  46335.7  15282.3
   11912.3  477671  46944  15465
   11914.2  478910  46798.3  15377.9
   11916.3  480747  46133.7  15165.8
   11918.8  481522  44825.1  14845.8
   11921  483873  43677.5  14587.9
   11923.4  485913  42605  14288.1
   11925.9  488093  41944.5  14111.3
   11928.4  490656  41494  13962.7
   11930.9  492881  40946.6  13752.1
   11933.7  495977  40291.2  13460.5
   11936.4  498997  39795.8  13205.1
   11939.2  501110  39571.4  13096.7
   11942.3  502737  39453.1  13095.4
   11945.1  507502  39774.8  13260.2
   11948.2  512107  40133.5  13420.1
   11951.3  515484  40516.3  13597
   11954.8  518260  41024.1  13820
   11957.9  522621  41723  14132.1
   11961.3  527017  42445.9  14393.3
   11964.7  530439  43025.7  14574.5
   11968.5  534468  43602.7  14821.9
   11971.9  539667  44413.6  15251.3
   11975.6  543003  45386.6  15757.8
   11979.4  547358  46561.7  16238.3
   11983.1  551104  47549.7  16602
   11987.2  554420  48302.8  16832.7
   11991.3  562177  49242.9  17057.5
   11995.3  566739  49880.1  17145.4
   11999.4  571081  50444.3  17271.3
   12003.5  576181  50963.4  17481.4
   12007.9  580839  51370.7  17712.5
   12012.3  585342  51701  17913.6
   12016.7  592790  52192.2  18195.9
   12021.1  598470  52578.6  18429.2
   12025.8  604306  52892  18672.7
   12030.5  610676  53063.3  18833.2
   12035.3  616639  53177.8  18958.7
   12040  622527  53417.3  19134.4
   12045  629439  54111.7  19456.1
   12050.1  636068  55032.3  19875.9
   12055.2  639752  55632.8  20090.8
   12060.2  647703  56504.4  20372.8
   12065.3  655880  57402  20743.8
   12070.7  661557  58093.6  21068.9
   12076.1  669104  59037.3  21366.1
   12081.5  675056  59809  21604.4
   12086.9  682361  60656.8  21897.7
   12092.6  690407  61633.5  22317.2
   12098.3  696629  62488.3  22793.7
   12104.1  705407  63589.1  23360.2
   12109.8  711485  64444  23814.9
   12115.9  719085  65425.9  24372.6
   12121.6  727281  66404.8  24904.5
   12127.7  734356  67386.7  25427.3
   12133.8  742839  68505.8  25944.3
   12140.2  751802  69565.8  26364.4
   12146.3  758471  70383.8  26674.5
   12152.8  765476  71084.9  26954.7
   12159.2  774039  71817  27266
   12165.6  782169  72592.2  27628.4
   12172.4  789282  73350.3  28022.8
   12178.9  798356  74544.5  28591.3
   12185.7  806856  75727.8  29129.9
   12192.5  814608  76617  29593.6
   12199.6  820739  77339.3  30034.3
   12206.4  828742  78447.6  30599.1
   12213.5  837627  79838  31316.1
   12220.7  846071  80877.4  31938
   12227.8  855790  81879.8  32542.1
   12235  864030  83054.2  33182.2
   12242.5  871377  84140.8  33771.5
   12250  880430  85446.3  34376.7
   12257.5  888842  86495.7  34833.1
   12265.1  897552  87689.3  35384.5
   12272.6  905276  88836.9  35969.1
   12280.5  914664  90184.6  36631.7
   12288.4  923219  91585.2  37353.3
   12296.3  931047  92811  38045.1
   12304.2  940566  94167.6  38817.9
   12312.1  946285  95008.4  39348.8
   12320.4  957931  96390.3  40133.9
   12328.7  965381  97521  40830.9
   12336.6  973381  98669.9  41526.1
   12345.2  983446  100121  42372.3
   12353.5  992205  101367  43091.6
   12362.2  998326  102456  43731
   12370.5  1.00814e+06  103837  44525.4
   12379.2  1.01794e+06  105372  45384
   12387.9  1.02595e+06  106527  46031.6
   12396.9  1.03392e+06  107723  46725.3
   12405.6  1.04317e+06  109097  47504.1
   12414.7  1.05095e+06  110429  48289.9
   12423.8  1.05997e+06  112060  49228.8
   12432.8  1.06613e+06  113293  50037.8
   12441.9  1.07483e+06  114604  50898.9
   12451.4  1.08104e+06  115641  51658.1
   12460.5  1.08985e+06  117011  52546.3
   12470  1.09893e+06  118547  53529.6
   12479.5  1.10777e+06  120141  54526
   12489  1.11451e+06  121497  55405.5
   12498.9  1.12119e+06  122911  56290
   12508.4  1.13087e+06  124516  57295.6
   12518.3  1.13753e+06  125819  58163.3
   12528.2  1.14467e+06  127078  59029.1
   12538.1  1.15437e+06  128698  60065
   12548.1  1.16267e+06  130180  61053.9
   12558.4  1.17051e+06  131687  62063.9
   12568.7  1.18006e+06  133431  63217
   12578.7  1.18886e+06  135008  64277.2
   12589.1  1.19516e+06  136362  65287.4
   12599.4  1.20563e+06  138079  66449.7
   12610.2  1.21489e+06  139694  67644.1
   12620.6  1.2237e+06  141335  68829.6
   12631.3  1.23012e+06  142869  69959.2
   12642.1  1.23342e+06  144114  70941.8
   12652.9  1.23689e+06  145162  71819.5
   12663.8  1.24332e+06  146512  72842.3
   12674.6  1.2487e+06  147783  73844.2
   12685.8  1.25476e+06  149207  74966.1
   12696.7  1.26253e+06  150871  76201.1
   12708  1.2679e+06  152262  77310.2
   12719.3  1.27802e+06  154305  78781.4
   12730.6  1.2872e+06  156222  80204.6
   12741.9  1.2931e+06  157747  81441
   12753.6  1.29776e+06  159155  82619.4
   12764.9  1.30414e+06  160685  83874.9
   12776.7  1.31421e+06  162639  85369.5
   12788.4  1.31753e+06  163881  86508
   12800.2  1.3232e+06  165371  87768.8
   12812  1.32978e+06  167015  89154.6
   12824.2  1.32937e+06  167843  90102.5
   12836  1.33837e+06  169784  91601.4
   12848.2  1.34593e+06  171511  93057.5
   12860.5  1.35039e+06  172913  94325.6
   12872.4  1.35562e+06  174492  95720.7
   12885.1  1.35961e+06  175974  97107