File: data/as2o3_10K_scan1.xdi
# XDI/1.0
# Column.1: energy eV
# Column.2: i0
# Column.3: itrans
# Column.4: irefer
# Beamline.name: SSRL 2-3
# Beamline.notes: vert slits = 0.6mm
# Detector.I0: N2 15cm
# Detector.I1: Ar 30cm
# Detector.I2: Ar 15cm
# Element.edge: K
# Element.symbol: As
# Mono.d_spacing: 3.13550
# Mono.name: Si(111)
# Mono.notes: unfocused, detuned 75%, clockwise at E=12000eV
# Sample.formula: As2O3
# Sample.name: As2O3 arsenious oxide
# Sample.prep: powder on tape (5 layers)
# Sample.reference: GaAs powder
# Sample.temperature: 10K
# Scan.start_time: 1997-04-19 19:47:10
# ///
#    Note: mono d_spacing is nominal!
#     exafs to K16, GaAs in IR
#     413  E XMU XMUR I0
#-------------
#   energy   i0   itrans  irefer
   11634.9  542376  61607.5  25297
   11654.9  535543  61408.5  25506
   11675.1  531708  61545.5  25871
   11695  525158  61348.5  26085
   11714.9  519761  61275.5  26359
   11735  515513  61327.5  26681
   11755.1  510041  61191.5  26925
   11775  504386  60989.5  27139
   11794.9  499575  60798.5  27360
   11814.9  493991  60334.5  27446
   11835  488720  59301.5  27234
   11845.4  486107  57884.5  26660
   11846.6  485481  57596.5  26530
   11847.5  485799  57456.5  26460
   11848.4  484767  57121.5  26306
   11849.6  484972  56826.5  26169
   11850.6  483556  56405.5  25968
   11851.5  483910  56129.5  25840
   11852.4  483252  55723.5  25647
   11853.6  484199  55267.5  25426
   11854.5  483815  54708.5  25149
   11855.4  484077  54185.5  24883
   11856.4  483579  53451.5  24522
   11857.6  483255  52278.5  23928
   11858.5  483090  51316.5  23447
   11859.4  482929  50039.5  22788
   11860.6  482936  47840.5  21668
   11861.6  482486  45820.5  20625
   11862.5  481702  43123.5  19228
   11863.4  481529  39936.5  17549
   11864.6  480675  33682.5  14272
   11865.5  479980  27736.5  11235
   11866.5  480661  21193.5  8092
   11867.4  479947  14072.5  4994
   11868.6  480556  6201.5  1983
   11869.5  479647  2768.5   832.001
   11870.5  479990  1036.5   299
   11871.4  478399   601.5   170
   11872.6  478071   839.5   236
   11873.5  477748  1248.5   353
   11874.4  478260  1781.5   514
   11875.4  477864  2502.5   737.999
   11876.6  478317  3599.5  1096
   11877.5  477704  4182.5  1296
   11878.4  477571  4336.5  1361
   11879.4  477162  4011.5  1268
   11880.6  477272  3166.5  1008
   11881.5  476465  2713.5   868
   11882.4  476357  2590.5   829
   11883.7  475395  2819.5   903
   11884.6  475489  3079.5   987.001
   11885.5  474469  3278.5  1053
   11886.4  474804  3455.5  1112
   11887.6  475196  3723.5  1200
   11888.6  474649  3942.5  1273
   11889.5  475322  4183.5  1349
   11890.4  474687  4393.5  1418
   11891.6  474806  4794.5  1545
   11892.6  474143  5186.5  1671
   11893.5  474580  5603.5  1812
   11894.4  473755  5905.5  1917
   11895.6  473815  6096.25  1994.76
   11896.9  473294  6137.28  2015.84
   11898.4  474090  6189.35  2038.99
   11899.7  473288  6221.44  2045.23
   11901.2  474447  6327.56  2073.54
   11903  473993  6506.72  2134.93
   11904.6  475525  6663.9  2185.39
   11906.4  475612  6807.12  2235.93
   11908.3  476905  6903.37  2276.56
   11910.1  478140  6709.65  2211.26
   11912.3  479629  6167.96  2030.03
   11914.2  481672  5729.3  1879.89
   11916.3  481722  5444.67  1788.82
   11918.8  483974  5448.07  1800.83
   11921  485966  5421.51  1808.92
   11923.4  488171  5133.98  1719.08
   11925.9  490085  4795.47  1605.32
   11928.4  491400  4650  1556.65
   11930.9  495188  4666.56  1559.04
   11933.7  496398  4612.15  1535.52
   11936.4  500204  4735.76  1565.07
   11939.2  502298  4800.42  1586.7
   11942.3  502540  4635.1  1536.41
   11945.1  509076  4519.81  1503.2
   11948.2  512981  4566.56  1524.06
   11951.3  516033  4860.33  1627
   11954.8  519965  5091.14  1712.02
   11957.9  523010  5202.97  1759.12
   11961.3  527478  5437.84  1838.3
   11964.7  531798  5615.74  1897.55
   11968.5  535819  5723.67  1941.88
   11971.9  539666  5859.64  2009.29
   11975.6  543682  5940.63  2058.77
   11979.4  549109  6128.65  2133.34
   11983.1  552130  6454.71  2250.98
   11987.2  554976  6711.79  2333.7
   11991.3  562660  6831.91  2360.49
   11995.3  567631  6924.05  2375.37
   11999.4  572811  6849.23  2340.32
   12003.5  577468  6621.44  2270.35
   12007.9  582621  6354.68  2190.46
   12012.3  585748  6169.95  2132.64
   12016.7  594002  6308.26  2193.9
   12021.1  599916  6484.59  2271.25
   12025.8  605517  6601.95  2326.66
   12030.5  610596  6620.35  2346.16
   12035.3  618142  6680.77  2374.73
   12040  623139  6804.24  2437.38
   12045  629640  6936.72  2493.11
   12050.1  635493  7051.24  2542.92
   12055.2  640473  7222.79  2605.8
   12060.2  649454  7424.38  2678.76
   12065.3  656610  7568.99  2735.8
   12070.7  662085  7451.63  2699.92
   12076.1  668853  7572.3  2740.11
   12081.5  674754  8000.01  2887.39
   12086.9  683030  8347.75  3008.74
   12092.6  688740  8486.52  3068.16
   12098.3  695243  8432.31  3073.67
   12104.1  702724  8374.14  3071.25
   12109.8  710131  8551  3154.91
   12115.9  716319  8894.9  3307.65
   12121.6  725234  9094.82  3405.47
   12127.7  731850  9066.77  3416.36
   12133.8  740340  9225.76  3490.33
   12140.2  748262  9528.77  3610.38
   12146.3  754540  9471.82  3584.51
   12152.8  762610  9378.89  3549.71
   12159.2  771933  9126.01  3461
   12165.6  778895  9338.14  3550.35
   12172.4  788024  9792.32  3736.79
   12178.9  795650  10030.5  3844.31
   12185.7  803384  10416.8  4004.9
   12192.5  811368  10818  4175.57
   12199.6  818284  10987.3  4263.32
   12206.4  827164  11083.6  4319.15
   12213.5  835405  11087  4343.05
   12220.7  845599  11207.4  4424.03
   12227.8  854605  11214.8  4452.09
   12235  862678  11267.2  4492.23
   12242.5  870659  11601.7  4646.44
   12250  879956  12127.2  4874.73
   12257.5  886573  12535.8  5045.1
   12265.1  895597  12987.4  5238.55
   12272.6  903809  13085  5290.08
   12280.5  912850  13020.6  5278.68
   12288.4  922884  13165.3  5357.36
   12296.3  929454  13079  5356.12
   12304.2  940658  13238.7  5445.95
   12312.1  946280  13432.4  5549.87
   12320.4  956090  13742.2  5715.86
   12328.7  965784  14205.1  5935.93
   12336.6  972621  14609.9  6141.08
   12345.2  982865  14614.8  6174.3
   12353.5  990802  14709.7  6243.6
   12362.2  1.00039e+06  15151.7  6459.98
   12370.5  1.00932e+06  15543.6  6653.44
   12379.2  1.01644e+06  15769.6  6775.97
   12387.9  1.02492e+06  15852.7  6835.59
   12396.9  1.0347e+06  16171.8  7003.28
   12405.6  1.04228e+06  16524.9  7183.05
   12414.7  1.05017e+06  16644  7262.89
   12423.8  1.05975e+06  16818.1  7379.81
   12432.8  1.06761e+06  17142.3  7554.81
   12441.9  1.07396e+06  17542.6  7771.89
   12451.4  1.08398e+06  17938.8  7996.05
   12460.5  1.09145e+06  18130.1  8124.28
   12470  1.10022e+06  18465.4  8324.6
   12479.5  1.10926e+06  18730.8  8488.99
   12489  1.1173e+06  18938.2  8629.45
   12498.9  1.1257e+06  19132.6  8759.99
   12508.4  1.13158e+06  19300  8869.61
   12518.3  1.13926e+06  19497.5  9006.32
   12528.2  1.14722e+06  19894  9229.1
   12538.1  1.15572e+06  20211.5  9424.96
   12548.1  1.16392e+06  20588.1  9636.88
   12558.4  1.17059e+06  21036.7  9900.89
   12568.7  1.1772e+06  21376.3  10118
   12578.7  1.1859e+06  21748  10346.1
   12589.1  1.19026e+06  21983.7  10506.4
   12599.4  1.1984e+06  22141.4  10644.7
   12610.2  1.20471e+06  22326.1  10790.1
   12620.6  1.21374e+06  22710.9  11033.6
   12631.3  1.22055e+06  23055.7  11267.1
   12642.1  1.22778e+06  23415.6  11508.8
   12652.9  1.23434e+06  23899.5  11803.5
   12663.8  1.24017e+06  24338.4  12075.3
   12674.6  1.24678e+06  24618.3  12275.1
   12685.8  1.25185e+06  24898.3  12488.1
   12696.7  1.25947e+06  25156.3  12680.1
   12708  1.26581e+06  25481.3  12917.2
   12719.3  1.27382e+06  25773.4  13127.4
   12730.6  1.27618e+06  25962.5  13315.6
   12741.9  1.2845e+06  26419.6  13621
   12753.6  1.29018e+06  26900.8  13950.4
   12764.9  1.29737e+06  27321.9  14249.9
   12776.7  1.30374e+06  27733.1  14543.4
   12788.4  1.30791e+06  28070.4  14811.1
   12800.2  1.31485e+06  28481.7  15102.8
   12812  1.31756e+06  28717  15310.6
   12824.2  1.32386e+06  29112.3  15613.5
   12836  1.33106e+06  29504.7  15903.4
   12848.2  1.33599e+06  29895.1  16192.4
   12860.5  1.33836e+06  30234.5  16460.5
   12872.4  1.34531e+06  30628  16784.7
   12885.1  1.34912e+06  31030.5  17101