File: data/as2o3_100K_scan3.xdi
# XDI/1.0
# Column.1: energy eV
# Column.2: i0
# Column.3: itrans
# Column.4: irefer
# Beamline.name: SSRL 2-3
# Beamline.notes: vert slits = 0.6mm
# Detector.I0: N2 15cm
# Detector.I1: Ar 30cm
# Detector.I2: Ar 15cm
# Element.edge: K
# Element.symbol: As
# Mono.d_spacing: 3.13550
# Mono.name: Si(111)
# Mono.notes: unfocused, detuned 75%, clockwise at E=12000eV
# Sample.formula: As2O3
# Sample.name: As2O3 arsenious oxide
# Sample.prep: powder on tape (2 layers)
# Sample.reference: GaAs powder
# Sample.temperature: 100K
# Scan.start_time: 1997-04-19 23:43:03
# ///
#    Note: mono d_spacing is nominal!
#     exafs to K16, GaAs in IR
#     413  E XMU XMUR I0
#-------------
#   energy   i0   itrans  irefer
   11634.9  511079  94035.5  38347
   11654.9  505696  93732.5  38691
   11675.1  501190  93586.5  39079
   11695  495890  93229.5  39388
   11714.9  490977  92979.5  39747
   11735  486190  92716.5  40087
   11755.1  481241  92408.5  40416
   11775  476613  92129.5  40748
   11794.9  471781  91764.5  41051
   11814.9  466684  91247.5  41254
   11835  462054  90517.5  41317
   11845.4  459052  89562.5  40989
   11846.6  459022  89458.5  40950
   11847.5  458501  89290.5  40868
   11848.4  458111  89107.5  40785
   11849.6  457116  88781.5  40623
   11850.6  457493  88739.5  40598
   11851.5  457187  88514.5  40475
   11852.4  457786  88455.5  40435
   11853.6  457413  88110.5  40247
   11854.5  457643  87872.5  40091
   11855.4  457209  87476.5  39859
   11856.4  456936  87058.5  39616
   11857.6  456520  86297.5  39148
   11858.5  456807  85775.5  38802
   11859.4  456153  84849.5  38230
   11860.6  456118  83409.5  37249
   11861.6  455577  81890.5  36213
   11862.5  455514  79800.5  34679
   11863.4  454599  76819.5  32423
   11864.6  454206  70660.5  27770
   11865.5  454328  63180.5  22839
   11866.5  454504  53198.5  17553
   11867.4  454319  40552.5  12221
   11868.6  454205  24801.5  6833
   11869.5  453578  18432.5  4939
   11870.5  453290  17250.5  4623
   11871.4  452511  19842.5  5389
   11872.6  452242  25249.5  7003
   11873.5  451876  29127.5  8236
   11874.4  452233  32760.5  9469
   11875.4  451815  36238.5  10753
   11876.6  452383  39625.5  12108
   11877.5  451504  40142.5  12457
   11878.4  451917  39089.5  12263
   11879.4  451345  37084.5  11712
   11880.6  451474  34752.5  11058
   11881.5  450935  34284.5  10934
   11882.4  451104  34859.5  11120
   11883.7  449668  36102.5  11504
   11884.6  449596  36929.5  11775
   11885.5  449201  37495.5  11974
   11886.4  449643  38172.5  12203
   11887.6  449541  39165.5  12533
   11888.6  449706  39931.5  12771
   11889.5  449228  40602.5  12984
   11890.4  449415  41365.5  13211
   11891.6  449027  42645.5  13624
   11892.6  448967  43691.5  13982
   11893.5  448400  44403.5  14271
   11894.4  448264  44824.5  14475
   11895.6  447845  44981.2  14618.8
   11896.9  448162  45088.3  14706.8
   11898.4  447762  45179.4  14729
   11899.7  448051  45350.4  14756.2
   11901.2  447960  45653.5  14820.5
   11903  448920  46190.7  15003.9
   11904.6  448939  46479.9  15139.4
   11906.4  450333  46914.1  15309.9
   11908.3  450720  46940.4  15348.6
   11910.1  452305  46440.6  15182.2
   11912.3  453121  45289  14766
   11914.2  455078  44603.3  14518.9
   11916.3  455843  44221.7  14433.8
   11918.8  457315  44311.1  14604.8
   11921  459269  44158.5  14653.9
   11923.4  461192  43488  14483.1
   11925.9  463597  42894.5  14311.3
   11928.4  465278  42765  14258.6
   11930.9  468148  42903.6  14260
   11933.7  470869  43029.1  14215.5
   11936.4  473120  43478.7  14285.1
   11939.2  475106  43627.4  14320.7
   11942.3  476418  43321.1  14283.4
   11945.1  481860  43496.8  14387.2
   11948.2  485172  44134.6  14642.1
   11951.3  489194  45261.3  15067
   11954.8  492182  46017.1  15369
   11957.9  495092  46650  15630.1
   11961.3  499397  47591.8  15945.3
   11964.7  503657  48302.8  16175.6
   11968.5  506738  48872.7  16447.9
   11971.9  511520  49601.6  16883.3
   11975.6  515830  50207.6  17257.8
   11979.4  519543  51020.6  17585.3
   11983.1  523199  52073.7  17965
   11987.2  526380  52823.8  18181.7
   11991.3  533707  53684.9  18356.5
   11995.3  537514  54114  18372.4
   11999.4  543061  54372.2  18404.3
   12003.5  548122  54334.5  18442.4
   12007.9  552722  54135.7  18456.5
   12012.3  556490  54110  18543.7
   12016.7  564021  54953.3  18957.9
   12021.1  568057  55476.6  19249.2
   12025.8  574690  56216  19636.7
   12030.5  580155  56703.3  19914.2
   12035.3  586209  57369.7  20236.7
   12040  591707  58166.3  20610.4
   12045  597273  58963.7  20979.1
   12050.1  602994  59827.3  21378.9
   12055.2  607144  60589.8  21628.8
   12060.2  616089  61777.4  22019.8
   12065.3  621827  62464  22342.8
   12070.7  629252  63024.6  22592.9
   12076.1  633401  63774.3  22817.1
   12081.5  640410  65157  23263.4
   12086.9  648843  66514.8  23747.7
   12092.6  654958  67347.5  24157.2
   12098.3  661320  67888.3  24519.7
   12104.1  667774  68534.2  24918.3
   12109.8  674124  69534  25436.9
   12115.9  682083  70891.9  26137.7
   12121.6  689835  71875.8  26682.5
   12127.7  695823  72530.8  27106.4
   12133.8  704320  73642.7  27612.3
   12140.2  711971  74630.7  27995.4
   12146.3  719028  75096.8  28159.5
   12152.8  726499  75531.9  28328.7
   12159.2  733567  75947  28535
   12165.6  739659  77038.1  29015.3
   12172.4  749080  78683.3  29775.8
   12178.9  757352  80123.5  30433.3
   12185.7  764826  81622.8  31076.9
   12192.5  772597  83028  31756.6
   12199.6  779202  84065.3  32309.3
   12206.4  787718  85076.6  32849.1
   12213.5  795871  85947  33387.1
   12220.7  804381  86957.4  34012
   12227.8  812500  87819.8  34552.1
   12235  820041  88827.2  35125.2
   12242.5  828035  90282.7  35868.4
   12250  835806  91909.2  36607.7
   12257.5  844539  93603.8  37307.1
   12265.1  850798  94949.4  37931.6
   12272.6  860482  96269  38579.1
   12280.5  868239  97203.6  39081.7
   12288.4  877419  98326.3  39686.4
   12296.3  885115  99175  40251.1
   12304.2  892618  100131  40841
   12312.1  901104  101326  41548.9
   12320.4  908373  102563  42270.9
   12328.7  916658  104107  43134.9
   12336.6  926369  105817  44096.1
   12345.2  933557  107049  44856.3
   12353.5  942530  108546  45652.6
   12362.2  949000  109939  46463
   12370.5  958021  111498  47329.4
   12379.2  965696  112776  48086
   12387.9  974535  114110  48810.6
   12396.9  983636  115551  49610.3
   12405.6  992094  116943  50413
   12414.7  999114  118117  51132.9
   12423.8  1.00793e+06  119666  52057.8
   12432.8  1.01507e+06  121188  52998.8
   12441.9  1.02349e+06  122907  54056.9
   12451.4  1.03274e+06  124657  55140
   12460.5  1.03935e+06  125954  56004.3
   12470  1.04916e+06  127616  57056.6
   12479.5  1.05656e+06  128920  57946
   12489  1.06281e+06  130020  58718.4
   12498.9  1.07004e+06  131236  59562
   12508.4  1.07791e+06  132601  60440.6
   12518.3  1.08617e+06  134133  61422.3
   12528.2  1.09452e+06  135820  62507.1
   12538.1  1.10021e+06  137254  63448
   12548.1  1.1093e+06  139137  64622.9
   12558.4  1.11605e+06  140729  65701.9
   12568.7  1.12459e+06  142528  66882
   12578.7  1.13403e+06  144301  68064.2
   12589.1  1.14047e+06  145645  69068.4
   12599.4  1.14786e+06  147047  70130.7
   12610.2  1.15424e+06  148407  71203.1
   12620.6  1.16249e+06  150079  72390.6
   12631.3  1.16896e+06  151650  73560.2
   12642.1  1.17591e+06  153346  74766.8
   12652.9  1.1837e+06  155222  76075.5
   12663.8  1.18933e+06  156758  77207.3
   12674.6  1.19476e+06  158171  78290.1
   12685.8  1.20073e+06  159655  79432.1
   12696.7  1.20746e+06  161116  80595.1
   12708  1.21441e+06  162635  81796.2
   12719.3  1.21935e+06  163926  82910.4
   12730.6  1.22575e+06  165457  84147.6
   12741.9  1.23187e+06  167051  85432
   12753.6  1.2374e+06  168675  86768.4
   12764.9  1.24462e+06  170516  88206.9
   12776.7  1.24866e+06  171967  89466.4
   12788.4  1.25431e+06  173613  90854.1
   12800.2  1.2599e+06  175186  92201.8
   12812  1.26785e+06  177072  93696.6
   12824.2  1.27136e+06  178338  94889.5
   12836  1.27713e+06  179893  96232.4
   12848.2  1.28223e+06  181418  97585.4
   12860.5  1.28791e+06  183111  99050.6
   12872.4  1.29285e+06  184656  100419
   12885.1  1.29392e+06  185776  101596