File: data/as2o5_10K_scan2.xdi
# XDI/1.0
# Column.1: energy eV
# Column.2: i0
# Column.3: itrans
# Column.4: irefer
# Beamline.name: SSRL 2-3
# Beamline.notes: vert slits = 0.6mm
# Detector.I0: N2 15cm
# Detector.I1: Ar 30cm
# Detector.I2: Ar 15cm
# Element.edge: K
# Element.symbol: As
# Mono.d_spacing: 3.13550
# Mono.name: Si(111)
# Mono.notes: unfocused, detuned 75%, clockwise at E=12000eV
# Sample.formula: As2O5
# Sample.name: As2O5 arsenic (V) oxide
# Sample.prep: powder on tape (5 layers)
# Sample.reference: GaAs powder
# Sample.temperature: 10K
# Scan.start_time: 1997-04-19 18:40:39
# ///
#    Note: mono d_spacing is nominal!
#     exafs to K16, GaAs in IR
#     413  E XMU XMUR I0
#-------------
#   energy   i0   itrans  irefer
   11634.9  546103  96985.5  39787
   11654.9  541284  96855.5  40193
   11675.1  535365  96505.5  40538
   11695  528338  95924.5  40761
   11714.9  524405  95896.5  41238
   11735  518512  95499.5  41520
   11755.1  512779  95125.5  41840
   11775  508291  94917.5  42225
   11794.9  502459  94442.5  42478
   11814.9  497106  93952.5  42710
   11835  492100  93255.5  42801
   11845.4  488982  92443.5  42555
   11846.6  489343  92453.5  42574
   11847.5  488393  92236.5  42467
   11848.4  488356  92154.5  42433
   11849.6  487569  91914.5  42321
   11850.6  487062  91742.5  42234
   11851.5  486572  91549.5  42135
   11852.4  486720  91484.5  42083
   11853.6  486377  91265.5  41963
   11854.5  487410  91315.5  41947
   11855.4  486186  90937.5  41751
   11856.4  486936  90862.5  41657
   11857.6  486000  90385.5  41357
   11858.5  486082  90121.5  41152
   11859.4  485573  89708.5  40843
   11860.6  486027  89229.5  40399
   11861.6  485245  88612.5  39862
   11862.5  485212  87968.5  39193
   11863.4  484114  87057.5  38206
   11864.6  483568  85537.5  35935
   11865.5  482650  83974.5  33215
   11866.5  483362  82292.5  29897
   11867.4  482754  79654.5  26058
   11868.6  483347  74315.5  21402
   11869.5  482780  68417.5  18710
   11870.5  482453  59876.5  16035
   11871.4  481512  49306.5  13203
   11872.6  480889  31791.5  8633
   11873.5  480340  20807.5  5742
   11874.4  480300  14072.5  3944
   11875.4  480348  11307.5  3245
   11876.6  480540  13114.5  3924
   11877.5  480352  16321.5  4997
   11878.4  479585  20147.5  6272
   11879.4  479434  23758.5  7476.99
   11880.6  479013  28277.5  9006
   11881.5  478394  30506.5  9770
   11882.4  477810  31870.5  10237
   11883.7  477652  32792.5  10542
   11884.6  476522  32957.5  10589
   11885.5  475896  33031.5  10610
   11886.4  474899  33078.5  10640
   11887.6  476049  33377.5  10755
   11888.6  475171  33554.5  10820
   11889.5  476223  33983.5  10955
   11890.4  475367  34353.5  11063
   11891.6  476069  35229.5  11329
   11892.6  474743  35774.5  11505
   11893.5  475184  36391.5  11729
   11894.4  474106  36877.5  11927
   11895.6  475321  37648.3  12262.8
   11896.9  474357  38103.3  12500.8
   11898.4  475209  38681.3  12718
   11899.7  474667  39161.4  12849.2
   11901.2  475732  40291.6  13184.5
   11903  475549  41791.7  13669.9
   11904.6  476962  43093.9  14118.4
   11906.4  477246  44419.1  14593.9
   11908.3  477878  45639.3  15026.5
   11910.1  479328  46689.6  15387.2
   11912.3  480926  47249  15547
   11914.2  482270  47115.3  15468.9
   11916.3  483081  46333.7  15222.8
   11918.8  485617  45181.1  14946.8
   11921  486753  43931.5  14662.9
   11923.4  488678  42853  14364.1
   11925.9  489272  42049.5  14129.3
   11928.4  491341  41555  13971.6
   11930.9  493935  41041.6  13774
   11933.7  496835  40381.1  13475.5
   11936.4  499720  39854.8  13214.1
   11939.2  501866  39640.4  13108.7
   11942.3  503438  39528.1  13115.4
   11945.1  507845  39811.8  13258.2
   11948.2  513319  40232.5  13444.1
   11951.3  515874  40549.3  13592
   11954.8  519920  41168.1  13864
   11957.9  524634  41882  14172.1
   11961.3  529063  42621.8  14443.3
   11964.7  532949  43225.7  14635.5
   11968.5  536309  43759.7  14862.9
   11971.9  542164  44622.7  15318.3
   11975.6  546365  45673.6  15850.8
   11979.4  551410  46899.6  16342.3
   11983.1  555962  47981.7  16741
   11987.2  558020  48610.8  16927.7
   11991.3  566153  49577.9  17156.5
   11995.3  571175  50271.1  17268.4
   11999.4  575617  50841.2  17399.3
   12003.5  580953  51379.4  17613.3
   12007.9  586288  51844.7  17867.5
   12012.3  589996  52116  18051.7
   12016.7  598227  52676.3  18359.9
   12021.1  603866  53051.6  18595.2
   12025.8  609641  53366  18825.7
   12030.5  615733  53505.3  18974.1
   12035.3  621992  53623.8  19107.7
   12040  628097  53903.2  19288.4
   12045  634923  54575.7  19620.1
   12050.1  639580  55336.2  19975.9
   12055.2  645065  56102.8  20243.8
   12060.2  653529  57015.4  20537.8
   12065.3  661154  57879  20903.8
   12070.7  667027  58569.6  21214.9
   12076.1  674806  59538.3  21534.1
   12081.5  679592  60216  21733.4
   12086.9  687718  61149.8  22055.7
   12092.6  694194  61992.5  22434.1
   12098.3  701824  62961.3  22952.7
   12104.1  708511  63875.1  23452.2
   12109.8  714351  64709  23894.9
   12115.9  723274  65808.9  24490.7
   12121.6  730289  66686.8  24991.5
   12127.7  737771  67689.8  25535.4
   12133.8  745525  68738.8  26034.3
   12140.2  753435  69737.8  26427.4
   12146.3  760255  70553.8  26709.5
   12152.8  766755  71223.9  26979.7
   12159.2  774881  71897  27265
   12165.6  782216  72615.2  27620.4
   12172.4  791040  73515.3  28075.8
   12178.9  800305  74733.5  28642.3
   12185.7  807587  75794.8  29134.9
   12192.5  814222  76588  29555.6
   12199.6  821310  77380.3  30022.3
   12206.4  829223  78507.7  30601.2
   12213.5  837696  79840  31296
   12220.7  845863  80861.4  31909
   12227.8  853724  81704.8  32458.1
   12235  862351  82909.2  33100.2
   12242.5  871205  84126.8  33748.5
   12250  879242  85319.2  34313.7
   12257.5  887286  86375.8  34778.1
   12265.1  895838  87525.4  35305.6
   12272.6  903249  88622  35867.1
   12280.5  912245  89923.6  36493.7
   12288.4  920521  91298.2  37214.3
   12296.3  926783  92368.9  37838.1
   12304.2  937441  93838.7  38648
   12312.1  944822  94835.4  39255.9
   12320.4  953499  95931.3  39926.9
   12328.7  963348  97304.1  40708.9
   12336.6  974033  98738  41536.1
   12345.2  981976  99951.8  42259.3
   12353.5  989141  101070  42924.6
   12362.2  997848  102389  43677
   12370.5  1.00551e+06  103561  44383.5
   12379.2  1.01395e+06  104943  45183
   12387.9  1.02125e+06  106057  45818.6
   12396.9  1.03089e+06  107417  46577.3
   12405.6  1.0396e+06  108710  47316
   12414.7  1.04818e+06  110122  48140.9
   12423.8  1.05573e+06  111606  49032.8
   12432.8  1.06653e+06  113315  50029.8
   12441.9  1.07526e+06  114665  50894.9
   12451.4  1.08184e+06  115730  51669
   12460.5  1.09107e+06  117110  52558.3
   12470  1.09865e+06  118520  53492.6
   12479.5  1.10636e+06  119984  54438
   12489  1.11657e+06  121700  55483.5
   12498.9  1.12483e+06  123308  56465
   12508.4  1.13056e+06  124454  57264.6
   12518.3  1.13863e+06  125935  58223.3
   12528.2  1.14807e+06  127433  59200.1
   12538.1  1.15576e+06  128845  60135
   12548.1  1.16363e+06  130274  61089.9
   12558.4  1.17143e+06  131768  62088.9
   12568.7  1.17886e+06  133288  63134
   12578.7  1.1875e+06  134825  64199.1
   12589.1  1.19685e+06  136515  65333.4
   12599.4  1.20219e+06  137676  66266.7
   12610.2  1.21007e+06  139144  67356.1
   12620.6  1.21964e+06  140868  68567.6
   12631.3  1.22523e+06  142286  69621.1
   12642.1  1.23398e+06  144156  70912.8
   12652.9  1.23996e+06  145518  71964.5
   12663.8  1.24724e+06  146955  73025.2
   12674.6  1.25293e+06  148249  74058.2
   12685.8  1.26013e+06  149830  75221.1
   12696.7  1.2676e+06  151464  76461.1
   12708  1.27468e+06  153048  77673.2
   12719.3  1.28148e+06  154657  78939.4
   12730.6  1.28633e+06  156096  80103.6
   12741.9  1.28939e+06  157257  81161.9
   12753.6  1.29856e+06  159206  82610.4
   12764.9  1.30506e+06  160768  83896.9
   12776.7  1.31422e+06  162602  85331.5
   12788.4  1.31941e+06  164084  86583
   12800.2  1.32262e+06  165257  87688.8
   12812  1.32678e+06  166593  88893.6
   12824.2  1.3333e+06  168273  90275.5
   12836  1.34026e+06  169943  91678.5
   12848.2  1.34476e+06  171335  92932.4
   12860.5  1.34946e+06  172735  94227.6
   12872.4  1.35375e+06  174192  95537.7
   12885.1  1.35726e+06  175623  96893