File: data/as2s3_roomt_scan1.xdi
# XDI/1.0
# Column.1: energy eV
# Column.2: i0
# Column.3: itrans
# Column.4: irefer
# Beamline.name: SSRL 2-3
# Beamline.notes: vert slits = 0.6mm
# Detector.I0: N2 15cm
# Detector.I1: Ar 30cm
# Detector.I2: Ar 15cm
# Element.edge: K
# Element.symbol: As
# Mono.d_spacing: 3.13550
# Mono.name: Si(111)
# Mono.notes: unfocused, detuned 75%, clockwise at E=12000eV
# Sample.formula: As2S3
# Sample.name: As2S3 arsenious sulfide (orpiment)
# Sample.prep: powder on tape (5 layers)
# Sample.reference: GaAs powder
# Sample.temperature: room temp
# Scan.start_time: 1997-04-20 10:51:20
# ///
#    Note: mono d_spacing is nominal!
#     exafs to K16, GaAs in IR
#     413  E XMU XMUR I0
#-------------
#   energy   i0   itrans  irefer
   11634.9  641230  111626  45428
   11654.9  635343  111426  45883
   11675.1  628660  111094  46297
   11695  621510  110661  46649
   11714.9  616046  110516  47133
   11735  611138  110415  47636
   11755.1  604962  110075  48024
   11775  598414  109653  48385
   11794.9  593258  109438  48839
   11814.9  587128  108966  49152
   11835  581602  108296  49318
   11845.4  577943  107423  49080
   11846.6  577668  107320  49044
   11847.5  577647  107238  48997
   11848.4  577104  107072  48918
   11849.6  576374  106819  48811
   11850.6  575802  106612  48718
   11851.5  575430  106415  48603
   11852.4  575255  106235  48517
   11853.6  575039  105938  48346
   11854.5  575635  105816  48272
   11855.4  575139  105468  48075
   11856.4  575221  105149  47885
   11857.6  574457  104434  47466
   11858.5  574934  103962  47168
   11859.4  573951  103115  46676
   11860.6  574318  101808  45850
   11861.6  573611  100312  44960
   11862.5  573185  98233.5  43685
   11863.4  572551  95327.5  41922
   11864.6  572302  88200.5  37679
   11865.5  571602  79218.5  32634
   11866.5  572423  66876.5  26208
   11867.4  572668  51221.5  18699
   11868.6  573889  32461.5  10342
   11869.5  573901  25980.5  7408
   11870.5  573382  26925.5  7213
   11871.4  572291  32888.5  8748
   11872.6  571340  43871.5  11865
   11873.5  569900  49662.5  13630
   11874.4  570036  52364.5  14591
   11875.4  569756  52577.5  14918
   11876.6  570527  51288.5  15038
   11877.5  569738  50588.5  15203
   11878.4  570026  50565.5  15532
   11879.4  568981  50861.5  15844
   11880.6  569143  51575.5  16272
   11881.5  569105  52029.5  16527
   11882.4  568310  52337.5  16694
   11883.7  567790  52743.5  16846
   11884.6  567024  52972.5  16905
   11885.5  566350  53162.5  16966
   11886.4  566319  53387.5  17052
   11887.6  565800  53667.5  17168
   11888.6  566652  54001.5  17294
   11889.5  566367  54275.5  17385
   11890.4  565922  54533.5  17456
   11891.6  565765  54966.5  17573
   11892.6  565951  55321.5  17677
   11893.5  565094  55568.5  17768
   11894.4  565122  55911.5  17920
   11895.6  564677  56289.3  18152.8
   11896.9  564664  56721.3  18424.8
   11898.4  564447  57194.3  18670
   11899.7  564732  57580.4  18784.2
   11901.2  565079  57955.6  18843.5
   11903  566043  58308.7  18935.9
   11904.6  566381  58444.9  18992.4
   11906.4  567495  58509.1  19064.9
   11908.3  568481  58434.4  19073.6
   11910.1  569989  58247.7  19044.3
   11912.3  571168  57795  18873
   11914.2  573607  57458.3  18716.9
   11916.3  575083  56899.7  18527.8
   11918.8  577482  56348.1  18462.8
   11921  579475  55969.5  18491.9
   11923.4  582142  55755  18536.1
   11925.9  584152  55689.5  18557.3
   11928.4  587196  55893  18652.7
   11930.9  590289  56255.5  18750
   11933.7  593041  56777.2  18839.5
   11936.4  597024  57633.8  18991.1
   11939.2  599630  58466.4  19196.7
   11942.3  601296  59380.1  19545.4
   11945.1  605277  60433.8  19967.2
   11948.2  611749  61810.5  20497
   11951.3  615789  62806.3  20896
   11954.8  620446  63696.2  21277
   11957.9  625127  64349  21609.1
   11961.3  629481  64835.9  21812.3
   11964.7  633852  65160.7  21898.5
   11968.5  639096  65459.7  22042.9
   11971.9  644554  65739.6  22346.3
   11975.6  648790  65827.6  22640.8
   11979.4  655559  66191.7  22880.4
   11983.1  660448  66376.7  22991
   11987.2  664000  66481.8  22993.7
   11991.3  671908  67122.9  23079.5
   11995.3  678307  67765.1  23134.4
   11999.4  684604  68575.2  23296.3
   12003.5  690697  69547.4  23651.3
   12007.9  696270  70689.7  24153.5
   12012.3  701324  71853.9  24676.6
   12016.7  710290  73464.2  25392.9
   12021.1  717400  74792.6  25992.2
   12025.8  724983  76046  26611.7
   12030.5  732687  77078.3  27131.1
   12035.3  740176  77989.8  27572.7
   12040  746966  78730.3  27963.4
   12045  754825  79528.7  28362.1
   12050.1  761341  80118.2  28706.9
   12055.2  767615  80658.8  28914.8
   12060.2  776875  81543.4  29169.8
   12065.3  786545  82505  29585.8
   12070.7  793693  83251.6  29961.9
   12076.1  803420  84368.3  30316.1
   12081.5  809806  85223  30550.4
   12086.9  819662  86537.8  30998.8
   12092.6  828609  87899.5  31574.2
   12098.3  836349  89185.3  32269.7
   12104.1  845251  90655.2  33038.3
   12109.8  852893  91988  33720.9
   12115.9  863057  93604.9  34584.7
   12121.6  872335  95030.9  35358.5
   12127.7  880926  96327.8  36077.4
   12133.8  891443  97733.7  36754.3
   12140.2  900760  98957.8  37254.4
   12146.3  910758  100179  37692.5
   12152.8  918492  101149  38079.7
   12159.2  929450  102447  38615
   12165.6  937831  103493  39116.4
   12172.4  949624  104979  39836.8
   12178.9  959440  106339  40502.3
   12185.7  969700  107822  41177.9
   12192.5  978496  109207  41863.6
   12199.6  987687  110708  42662.3
   12206.4  998303  112422  43524.1
   12213.5  1.00917e+06  114183  44443.1
   12220.7  1.0189e+06  115818  45396.1
   12227.8  1.02949e+06  117528  46379.1
   12235  1.03938e+06  119152  47230.2
   12242.5  1.05012e+06  120842  48127.4
   12250  1.06083e+06  122479  48944.7
   12257.5  1.06921e+06  123849  49522.1
   12265.1  1.0812e+06  125600  50314.5
   12272.6  1.0906e+06  127047  51065.1
   12280.5  1.10056e+06  128532  51817.7
   12288.4  1.1135e+06  130416  52784.3
   12296.3  1.12462e+06  132120  53751.1
   12304.2  1.13466e+06  133738  54714.9
   12312.1  1.14555e+06  135491  55691.9
   12320.4  1.1547e+06  137130  56674.9
   12328.7  1.1656e+06  139017  57753.9
   12336.6  1.17676e+06  140936  58868.1
   12345.2  1.18752e+06  142879  60007.3
   12353.5  1.19882e+06  144878  61105.6
   12362.2  1.20873e+06  146742  62167
   12370.5  1.22021e+06  148748  63288.4
   12379.2  1.22955e+06  150493  64327
   12387.9  1.23924e+06  152247  65297.6
   12396.9  1.24892e+06  154005  66310.3
   12405.6  1.26061e+06  155998  67409.1
   12414.7  1.27087e+06  157805  68468.9
   12423.8  1.2815e+06  159722  69630.8
   12432.8  1.29198e+06  161631  70814.8
   12441.9  1.30341e+06  163667  72101.9
   12451.4  1.31226e+06  165458  73320.1
   12460.5  1.32244e+06  167444  74591.3
   12470  1.33253e+06  169440  75898.6
   12479.5  1.34323e+06  171561  77269
   12489  1.35548e+06  173878  78682.4
   12498.9  1.36325e+06  175672  79852
   12508.4  1.3744e+06  177900  81234.6
   12518.3  1.38539e+06  180129  82627.3
   12528.2  1.39494e+06  182127  83964.1
   12538.1  1.4024e+06  183878  85167.9
   12548.1  1.41635e+06  186480  86794.9
   12558.4  1.42368e+06  188213  88024.9
   12568.7  1.43224e+06  190131  89387
   12578.7  1.44371e+06  192463  90960.1
   12589.1  1.45404e+06  194631  92491.4
   12599.4  1.46383e+06  196771  94030.7
   12610.2  1.47028e+06  198531  95450.1
   12620.6  1.48036e+06  200750  97051.6
   12631.3  1.49163e+06  203187  98763.1
   12642.1  1.49849e+06  205079  100203
   12652.9  1.5079e+06  207321  101830
   12663.8  1.51774e+06  209628  103475
   12674.6  1.52587e+06  211682  105016
   12685.8  1.53352e+06  213728  106547
   12696.7  1.54356e+06  216084  108287
   12708  1.55052e+06  218059  109849
   12719.3  1.56125e+06  220502  111704
   12730.6  1.56946e+06  222690  113421
   12741.9  1.57681e+06  224683  115085
   12753.6  1.58477e+06  226865  116875
   12764.9  1.59186e+06  228889  118570
   12776.7  1.60023e+06  231182  120468
   12788.4  1.61038e+06  233764  122501
   12800.2  1.61698e+06  235809  124281
   12812  1.6248e+06  238064  126150
   12824.2  1.62754e+06  239588  127655
   12836  1.63551e+06  241944  129600
   12848.2  1.64656e+06  244693  131795
   12860.5  1.65005e+06  246376  133437
   12872.4  1.65587e+06  248394  135258
   12885.1  1.66196e+06  250495  137205