File: data/as2s3_100K_scan3.xdi
# XDI/1.0
# Column.1: energy eV
# Column.2: i0
# Column.3: itrans
# Column.4: irefer
# Beamline.name: SSRL 2-3
# Beamline.notes: vert slits = 0.6mm
# Detector.I0: N2 15cm
# Detector.I1: Ar 30cm
# Detector.I2: Ar 15cm
# Element.edge: K
# Element.symbol: As
# Mono.d_spacing: 3.13550
# Mono.name: Si(111)
# Mono.notes: unfocused, detuned 75%, clockwise at E=12000eV
# Sample.formula: As2S3
# Sample.name: As2S3 arsenious sulfide (orpiment)
# Sample.prep: powder on tape (5 layers)
# Sample.reference: GaAs powder
# Sample.temperature: 100K
# Scan.start_time: 1997-04-19 22:41:20
# ///
#    Note: mono d_spacing is nominal!
#     exafs to K16, GaAs in IR
#     413  E XMU XMUR I0
#-------------
#   energy   i0   itrans  irefer
   11634.9  516546  92236.5  37653
   11654.9  510722  91877.5  37957
   11675.1  506275  91754.5  38358
   11695  500118  91323.5  38616
   11714.9  495455  91118.5  38985
   11735  491038  90940.5  39358
   11755.1  485997  90659.5  39690
   11775  480602  90285.5  39975
   11794.9  476031  90016.5  40300
   11814.9  470667  89529.5  40514
   11835  466047  89014.5  40660
   11845.4  463333  88323.5  40454
   11846.6  463169  88227.5  40418
   11847.5  463110  88155.5  40392
   11848.4  462691  88033.5  40325
   11849.6  462318  87854.5  40244
   11850.6  461334  87561.5  40091
   11851.5  461710  87555.5  40077
   11852.4  461648  87428.5  40015
   11853.6  462033  87283.5  39913
   11854.5  461260  86943.5  39718
   11855.4  461900  86845.5  39633
   11856.4  461516  86458.5  39407
   11857.6  461293  85889.5  39047
   11858.5  460683  85235.5  38661
   11859.4  460552  84549.5  38206
   11860.6  460481  83145.5  37313
   11861.6  460363  81653.5  36343
   11862.5  459228  79138.5  34770
   11863.4  458927  75656.5  32582
   11864.6  458479  66773.5  27333
   11865.5  458819  56409.5  21790
   11866.5  458779  44287.5  15892
   11867.4  458713  32300.5  10469
   11868.6  459080  24535.5  6895
   11869.5  458732  26010.5  6980
   11870.5  458052  31752.5  8503
   11871.4  457443  38178.5  10344
   11872.6  456909  45189.5  12504
   11873.5  456781  47278.5  13289
   11874.4  456660  47274.5  13528
   11875.4  456814  46405.5  13605
   11876.6  456762  45541.5  13826
   11877.5  456531  45479.5  14078
   11878.4  456568  45829.5  14384
   11879.4  456119  46177.5  14622
   11880.6  456343  46734.5  14927
   11881.5  455477  46964.5  15057
   11882.4  455066  47205.5  15150
   11883.7  454503  47481.5  15225
   11884.6  453948  47646.5  15268
   11885.5  453460  47775.5  15331
   11886.4  453586  47972.5  15412
   11887.6  453820  48262.5  15528
   11888.6  454050  48508.5  15613
   11889.5  453956  48750.5  15668
   11890.4  453506  48965.5  15730
   11891.6  453409  49320.5  15833
   11892.6  453193  49593.5  15930
   11893.5  452457  49773.5  16033
   11894.4  453106  50129.5  16222
   11895.6  452381  50401.2  16425.8
   11896.9  452284  50729.3  16616.8
   11898.4  451986  51065.3  16737
   11899.7  452681  51390.5  16797.2
   11901.2  452605  51591.6  16821.5
   11903  453134  51806.7  16892.9
   11904.6  453767  51889.9  16962.4
   11906.4  454672  51888.1  17006.9
   11908.3  455815  51797.4  17007.6
   11910.1  456488  51549.6  16929.3
   11912.3  457775  51170.9  16770
   11914.2  459497  50854.3  16636.9
   11916.3  460851  50424.7  16526.8
   11918.8  462237  49983.1  16523.8
   11921  464364  49819.5  16602.9
   11923.4  465842  49686  16618.1
   11925.9  468283  49809.5  16692.3
   11928.4  469733  49974  16739.7
   11930.9  472458  50344.5  16833
   11933.7  475278  50911.1  16930.5
   11936.4  477302  51565.7  17042.1
   11939.2  479691  52323.4  17259.7
   11942.3  480913  53081.1  17575.4
   11945.1  486027  54223.8  18019.2
   11948.2  489705  55191.6  18410.1
   11951.3  492695  55955.3  18722
   11954.8  496701  56696.1  19057
   11957.9  499996  57168  19308.1
   11961.3  503565  57563.8  19456.3
   11964.7  507935  57946.8  19566.6
   11968.5  511642  58182.7  19737.9
   11971.9  515984  58448.6  20046.3
   11975.6  519732  58619.6  20292.8
   11979.4  524870  58929.6  20482.3
   11983.1  527958  59048.7  20548
   11987.2  530633  59129.8  20525.7
   11991.3  538303  59865.9  20658.5
   11995.3  542702  60359.1  20673.4
   11999.4  547787  61079.3  20844.3
   12003.5  552837  61972.5  21199.4
   12007.9  557942  63044.7  21677.5
   12012.3  561596  64057.9  22137.6
   12016.7  569126  65514.2  22770.9
   12021.1  573957  66579.6  23276.2
   12025.8  580217  67687.9  23823.7
   12030.5  585810  68515.4  24235.2
   12035.3  591694  69262.8  24613.7
   12040  596956  69897.2  24965.4
   12045  603322  70577.7  25305.1
   12050.1  609146  71169.3  25624.9
   12055.2  613190  71552.8  25745.8
   12060.2  621576  72444.4  26030.8
   12065.3  628779  73245.9  26406.8
   12070.7  634901  73964.6  26732.9
   12076.1  640947  74749.3  26963.1
   12081.5  647500  75699  27243.4
   12086.9  653941  76726.7  27607.7
   12092.6  662443  78038.5  28189.2
   12098.3  668176  79130.3  28802.7
   12104.1  675144  80396.2  29444.3
   12109.8  681848  81663  30103.9
   12115.9  690213  83104.9  30869.6
   12121.6  697306  84327.8  31551.5
   12127.7  703490  85367.8  32132.4
   12133.8  710873  86500.8  32681.3
   12140.2  719383  87687.8  33138.4
   12146.3  725507  88517.8  33447.5
   12152.8  733183  89503.9  33833.7
   12159.2  740235  90418  34236
   12165.6  747620  91398.1  34707.3
   12172.4  755936  92577.3  35283.8
   12178.9  764257  93815.5  35880.3
   12185.7  772189  95076.7  36455.9
   12192.5  780363  96457  37149.6
   12199.6  787108  97734.3  37837.3
   12206.4  795058  99155.7  38555.2
   12213.5  803840  100718  39387
   12220.7  812625  102276  40281
   12227.8  819643  103594  41052.1
   12235  828292  105076  41840.2
   12242.5  835269  106350  42551.4
   12250  844256  107835  43265.7
   12257.5  852999  109282  43879.1
   12265.1  860414  110545  44490.5
   12272.6  868536  111857  45159.1
   12280.5  874504  112907  45729.7
   12288.4  885127  114568  46587.4
   12296.3  893786  116000  47405.1
   12304.2  902453  117499  48264
   12312.1  910477  118939  49133.9
   12320.4  917730  120356  49962.8
   12328.7  925283  121851  50840
   12336.6  933460  123446  51800.1
   12345.2  942101  125154  52782.3
   12353.5  950906  126872  53736.6
   12362.2  958598  128448  54652
   12370.5  968515  130277  55681.5
   12379.2  976613  131890  56635
   12387.9  983483  133290  57412.6
   12396.9  993547  135121  58416.3
   12405.6  1.00185e+06  136666  59323
   12414.7  1.00882e+06  138089  60190.9
   12423.8  1.01641e+06  139607  61150.8
   12432.8  1.02416e+06  141152  62131.8
   12441.9  1.03175e+06  142727  63167.9
   12451.4  1.04005e+06  144413  64295
   12460.5  1.0482e+06  146119  65392.3
   12470  1.05695e+06  147957  66583.6
   12479.5  1.066e+06  149863  67790.9
   12489  1.07303e+06  151502  68883.4
   12498.9  1.08004e+06  153174  69975
   12508.4  1.08728e+06  154827  71022.7
   12518.3  1.09668e+06  156836  72280.3
   12528.2  1.10431e+06  158567  73429.1
   12538.1  1.11057e+06  160106  74502.9
   12548.1  1.11805e+06  161791  75637.9
   12558.4  1.12494e+06  163462  76805.9
   12568.7  1.13405e+06  165425  78136
   12578.7  1.14372e+06  167467  79494.1
   12589.1  1.15047e+06  169150  80734.4
   12599.4  1.15787e+06  170903  82044.7
   12610.2  1.16326e+06  172440  83258.1
   12620.6  1.17053e+06  174237  84592.6
   12631.3  1.17673e+06  175950  85882.2
   12642.1  1.18474e+06  177958  87339.8
   12652.9  1.19231e+06  179885  88730.5
   12663.8  1.19656e+06  181315  89884.3
   12674.6  1.20434e+06  183303  91343.2
   12685.8  1.21028e+06  184991  92656
   12696.7  1.21822e+06  187023  94143.1
   12708  1.2241e+06  188737  95547.2
   12719.3  1.22771e+06  190081  96741.4
   12730.6  1.23462e+06  192004  98230.6
   12741.9  1.24206e+06  193955  99772
   12753.6  1.24605e+06  195440  101153
   12764.9  1.25352e+06  197398  102734
   12776.7  1.25732e+06  198890  104114
   12788.4  1.26311e+06  200685  105631
   12800.2  1.2682e+06  202403  107131
   12812  1.27543e+06  204486  108849
   12824.2  1.28033e+06  206211  110365
   12836  1.28485e+06  207888  111839
   12848.2  1.29128e+06  209905  113547
   12860.5  1.29812e+06  211968  115297
   12872.4  1.30075e+06  213353  116708
   12885.1  1.30438e+06  214976  118275