File: data/as2s3_10K_scan1.xdi
# XDI/1.0
# Column.1: energy eV
# Column.2: i0
# Column.3: itrans
# Column.4: irefer
# Beamline.name: SSRL 2-3
# Beamline.notes: vert slits = 0.6mm
# Detector.I0: N2 15cm
# Detector.I1: Ar 30cm
# Detector.I2: Ar 15cm
# Element.edge: K
# Element.symbol: As
# Mono.d_spacing: 3.13550
# Mono.name: Si(111)
# Mono.notes: unfocused, detuned 75%, clockwise at E=12000eV
# Sample.formula: As2S3
# Sample.name: As2S3 arsenious sulfide (orpiment)
# Sample.prep: powder on tape (5 layers)
# Sample.reference: GaAs powder
# Sample.temperature: 10K
# Scan.start_time: 1997-04-19 16:23:01
# ///
#    Note: mono d_spacing is nominal!
#     exafs to K16, GaAs in IR
#     413  E XMU XMUR I0
#-------------
#   energy   i0   itrans  irefer
   11634.9  583761  92987.5  38257
   11654.9  579259  93014.5  38722
   11675.1  574120  92927.5  39136
   11695  565371  92253.5  39322
   11714.9  561438  92320.5  39810
   11735  557078  92303.5  40258
   11755.1  550642  91946.5  40552
   11775  546050  91827.5  40957
   11794.9  539035  91305.5  41191
   11814.9  533678  90950.5  41467
   11835  527822  90235.5  41537
   11845.4  524754  89472.5  41315
   11846.6  524671  89377.5  41271
   11847.5  524224  89277.5  41229
   11848.4  524161  89202.5  41193
   11849.6  523628  88983.5  41096
   11850.6  522873  88756.5  40988
   11851.5  522021  88486.5  40851
   11852.4  521373  88266.5  40742
   11853.6  521695  88094.5  40655
   11854.5  521355  87833.5  40514
   11855.4  521746  87668.5  40406
   11856.4  521423  87318.5  40216
   11857.6  521783  86874.5  39953
   11858.5  521024  86278.5  39620
   11859.4  520830  85625.5  39249
   11860.6  520418  84454.5  38563
   11861.6  520104  83320.5  37894
   11862.5  518631  81510.5  36851
   11863.4  519118  79459.5  35636
   11864.6  518430  74523.5  32777
   11865.5  517756  68348.5  29311
   11866.5  517293  59868.5  24798
   11867.4  518301  47369.5  18605
   11868.6  517594  28718.5  10187
   11869.5  517599  19042.5  6083
   11870.5  517841  15056.5  4263
   11871.4  517161  17196.5  4634
   11872.6  516115  25477.5  6916.99
   11873.5  515786  31892.5  8796
   11874.4  515257  35657.5  9972
   11875.4  515060  37034.5  10527
   11876.6  515508  36154.5  10583
   11877.5  515593  35215.5  10578
   11878.4  515049  34761.5  10700
   11879.4  514836  34875.5  10919
   11880.6  514964  35470.5  11278
   11881.5  513789  35843.5  11485
   11882.4  514598  36280.5  11679
   11883.7  513501  36658.5  11834
   11884.6  513386  36947.5  11924
   11885.5  512581  37147.5  11988
   11886.4  512076  37316.5  12047
   11887.6  511501  37550.5  12137
   11888.6  511912  37779.5  12230
   11889.5  512158  38032.5  12314
   11890.4  511788  38263.5  12381
   11891.6  511175  38628.5  12487
   11892.6  511280  38953.5  12590
   11893.5  510940  39223.5  12672
   11894.4  511262  39565.5  12801
   11895.6  510431  39919.2  12997.8
   11896.9  510525  40344.3  13221.8
   11898.4  510597  40824.4  13461
   11899.7  510859  41173.4  13586.2
   11901.2  510521  41497.5  13650.5
   11903  510669  41755.7  13707.9
   11904.6  511908  41944.9  13773.4
   11906.4  512504  41966.1  13812.9
   11908.3  513531  41875.4  13816.6
   11910.1  514613  41669.7  13773.3
   11912.3  516001  41268  13634
   11914.2  517261  40834.3  13465.9
   11916.3  519633  40346.7  13281.8
   11918.8  520964  39699.1  13136.8
   11921  522663  39280.5  13114.9
   11923.4  524527  38996  13103.1
   11925.9  526715  38905.5  13108.3
   11928.4  528419  38941  13135.6
   11930.9  531039  39176.6  13201
   11933.7  534541  39605.1  13284.5
   11936.4  537275  40203.8  13401.1
   11939.2  539424  40882.4  13571.7
   11942.3  541722  41734.1  13877.4
   11945.1  544197  42552.8  14201.2
   11948.2  550644  43714.6  14642.1
   11951.3  554371  44551.3  14980
   11954.8  557806  45210.2  15262
   11957.9  561441  45672  15494.1
   11961.3  564794  45960.8  15633.3
   11964.7  568717  46182.7  15696.6
   11968.5  573149  46332.7  15771.9
   11971.9  577146  46391.6  15939.3
   11975.6  580758  46386.6  16119.8
   11979.4  584640  46379.6  16204.3
   11983.1  589152  46436.7  16259
   11987.2  591726  46364.8  16217.7
   11991.3  598902  46705.9  16246.5
   11995.3  605217  47130  16276.4
   11999.4  610146  47610.2  16347.3
   12003.5  614243  48212.5  16572.4
   12007.9  621064  49243.7  17010.5
   12012.3  625097  50191.9  17423.6
   12016.7  632285  51432.3  17963.9
   12021.1  639613  52628.6  18480.2
   12025.8  645228  53549  18937.7
   12030.5  651581  54294.4  19305.2
   12035.3  657058  54832.8  19595.7
   12040  662301  55269.2  19834.4
   12045  669792  55801.7  20118.1
   12050.1  676530  56209.2  20355.9
   12055.2  681628  56495.8  20475.8
   12060.2  688444  56917.4  20582.8
   12065.3  696270  57482  20816.8
   12070.7  704096  58088.7  21126.9
   12076.1  711215  58702.3  21316.1
   12081.5  718512  59449  21537.4
   12086.9  725177  60246.8  21808.7
   12092.6  734230  61315.5  22243.2
   12098.3  742074  62359.3  22785.7
   12104.1  749343  63426.1  23343.3
   12109.8  756176  64465  23869.9
   12115.9  765431  65725.9  24512.7
   12121.6  774364  66884.8  25125.5
   12127.7  780519  67739.8  25620.4
   12133.8  789351  68738.8  26110.3
   12140.2  797764  69623.8  26468.4
   12146.3  806560  70458.8  26771.5
   12152.8  814170  71145.9  27047.7
   12159.2  823192  71935  27386
   12165.6  829837  72541.2  27677.4
   12172.4  838868  73440.3  28138.8
   12178.9  848215  74419.5  28625.3
   12185.7  856834  75452.8  29111.9
   12192.5  865555  76566  29652.6
   12199.6  874137  77757.3  30266.3
   12206.4  884418  79112.7  30929.2
   12213.5  892534  80309  31584.1
   12220.7  900567  81519.4  32271
   12227.8  909222  82741.8  32976.1
   12235  918672  83990.3  33641.2
   12242.5  925730  85026.7  34212.4
   12250  936024  86336.3  34851.7
   12257.5  944339  87411.8  35311.1
   12265.1  950671  88286.3  35724.5
   12272.6  960484  89424  36295.1
   12280.5  971739  90717.6  36943.7
   12288.4  980283  91779.2  37521.3
   12296.3  988856  92854  38166.1
   12304.2  996973  93934.7  38808.9
   12312.1  1.00625e+06  95192.4  39532.9
   12320.4  1.01391e+06  96369.2  40245.8
   12328.7  1.0226e+06  97685.1  40993.9
   12336.6  1.03119e+06  98996  41770.1
   12345.2  1.04112e+06  100490  42644.3
   12353.5  1.05081e+06  101958  43452.6
   12362.2  1.05675e+06  103095  44123
   12370.5  1.06654e+06  104546  44947.4
   12379.2  1.07536e+06  105895  45722
   12387.9  1.08458e+06  107252  46470.6
   12396.9  1.09098e+06  108295  47098.3
   12405.6  1.1005e+06  109664  47870
   12414.7  1.10911e+06  110930  48624.9
   12423.8  1.11689e+06  112130  49379.8
   12432.8  1.12377e+06  113258  50135.8
   12441.9  1.13102e+06  114452  50928.9
   12451.4  1.13941e+06  115852  51851
   12460.5  1.14768e+06  117216  52754.3
   12470  1.15717e+06  118752  53730.6
   12479.5  1.16654e+06  120329  54740
   12489  1.17649e+06  121967  55756.4
   12498.9  1.18024e+06  123023  56494
   12508.4  1.18732e+06  124373  57363.6
   12518.3  1.19489e+06  125828  58322.3
   12528.2  1.20332e+06  127304  59270.1
   12538.1  1.21193e+06  128854  60286.9
   12548.1  1.21857e+06  130137  61176.9
   12558.4  1.22528e+06  131456  62099.9
   12568.7  1.23304e+06  132890  63109
   12578.7  1.24218e+06  134481  64219.2
   12589.1  1.24907e+06  135827  65193.4
   12599.4  1.2575e+06  137371  66310.7
   12610.2  1.2615e+06  138465  67230.1
   12620.6  1.26918e+06  139990  68332.6
   12631.3  1.27713e+06  141593  69506.2
   12642.1  1.28329e+06  143063  70590.8
   12652.9  1.29069e+06  144648  71746.5
   12663.8  1.29451e+06  145842  72718.3
   12674.6  1.30142e+06  147383  73840.2
   12685.8  1.3074e+06  148839  74965.1
   12696.7  1.31414e+06  150360  76115.1
   12708  1.32041e+06  151842  77289.2
   12719.3  1.32941e+06  153644  78618.4
   12730.6  1.3339e+06  154921  79717.6
   12741.9  1.34226e+06  156633  81057.9
   12753.6  1.34914e+06  158224  82328.4
   12764.9  1.35473e+06  159652  83536.8
   12776.7  1.36173e+06  161326  84903.4
   12788.4  1.36758e+06  162831  86167.1
   12800.2  1.37225e+06  164283  87406.8
   12812  1.37655e+06  165667  88650.6
   12824.2  1.38113e+06  167108  89918.5
   12836  1.38789e+06  168815  91303.4
   12848.2  1.39162e+06  170203  92573.4
   12860.5  1.3971e+06  171798  93962.5
   12872.4  1.40311e+06  173433  95365.7
   12885.1  1.40498e+06  174603  96561