File: data/as2s3_100K_scan1.xdi
# XDI/1.0
# Column.1: energy eV
# Column.2: i0
# Column.3: itrans
# Column.4: irefer
# Beamline.name: SSRL 2-3
# Beamline.notes: vert slits = 0.6mm
# Detector.I0: N2 15cm
# Detector.I1: Ar 30cm
# Detector.I2: Ar 15cm
# Element.edge: K
# Element.symbol: As
# Mono.d_spacing: 3.13550
# Mono.name: Si(111)
# Mono.notes: unfocused, detuned 75%, clockwise at E=12000eV
# Sample.formula: As2S3
# Sample.name: As2S3 arsenious sulfide (orpiment)
# Sample.prep: powder on tape (5 layers)
# Sample.reference: GaAs powder
# Sample.temperature: 100K
# Scan.start_time: 1997-04-19 22:41:20
# ///
#    Note: mono d_spacing is nominal!
#     exafs to K16, GaAs in IR
#     413  E XMU XMUR I0
#-------------
#   energy   i0   itrans  irefer
   11634.9  522870  93227.5  38014
   11654.9  517087  92891.5  38342
   11675.1  511248  92509.5  38641
   11695  505740  92195.5  38949
   11714.9  501165  92042.5  39350
   11735  495964  91748.5  39675
   11755.1  491079  91479.5  40005
   11775  485957  91147.5  40323
   11794.9  481202  90882.5  40654
   11814.9  476319  90484.5  40911
   11835  470819  89772.5  40971
   11845.4  469058  89266.5  40859
   11846.6  468326  89092.5  40786
   11847.5  468537  89070.5  40777
   11848.4  467149  88745.5  40626
   11849.6  467496  88730.5  40609
   11850.6  466471  88435.5  40464
   11851.5  467166  88452.5  40463
   11852.4  466679  88249.5  40353
   11853.6  466822  88075.5  40241
   11854.5  466733  87841.5  40104
   11855.4  466608  87589.5  39956
   11856.4  466260  87208.5  39728
   11857.6  466616  86730.5  39412
   11858.5  466198  86109.5  39027
   11859.4  465797  85368.5  38564
   11860.6  464971  83845.5  37601
   11861.6  464828  82319.5  36619
   11862.5  463841  79824.5  35063
   11863.4  463930  76344.5  32864
   11864.6  462820  67380.5  27597
   11865.5  463230  56853.5  21967
   11866.5  463104  44704.5  16050
   11867.4  463320  32765.5  10648
   11868.6  463049  24675.5  6950
   11869.5  462780  26090.5  7008
   11870.5  462044  31808.5  8520
   11871.4  461640  38293.5  10372
   11872.6  460963  45391.5  12547
   11873.5  461051  47555.5  13365
   11874.4  460983  47576.5  13610
   11875.4  461259  46739.5  13689
   11876.6  461052  45823.5  13898
   11877.5  461063  45790.5  14163
   11878.4  460710  46073.5  14456
   11879.4  460786  46494.5  14718
   11880.6  460341  46974.5  15002
   11881.5  460623  47336.5  15171
   11882.4  459579  47515.5  15246
   11883.7  459316  47829.5  15336
   11884.6  458354  47945.5  15373
   11885.5  458572  48158.5  15450
   11886.4  457583  48242.5  15501
   11887.6  458748  48636.5  15650
   11888.6  458113  48795.5  15695
   11889.5  458381  49081.5  15780
   11890.4  457770  49262.5  15825
   11891.6  457781  49643.5  15925
   11892.6  457374  49894.5  16030
   11893.5  457225  50145.5  16153
   11894.4  456663  50365.5  16301
   11895.6  456837  50740.3  16540.8
   11896.9  456443  51036.3  16713.8
   11898.4  456463  51417.3  16848
   11899.7  456571  51671.4  16891.2
   11901.2  457059  51946.6  16934.5
   11903  457649  52157.7  17009.9
   11904.6  458226  52241.9  17068.4
   11906.4  458717  52188.1  17092.9
   11908.3  459829  52116.4  17107.6
   11910.1  460684  51864.6  17022.2
   11912.3  461923  51479.9  16865
   11914.2  463491  51157.3  16724.9
   11916.3  464541  50675.7  16601.8
   11918.8  466273  50276.1  16610.8
   11921  467726  50036.5  16658.9
   11923.4  469923  49962  16705.1
   11925.9  471383  49974.5  16740.3
   11928.4  473665  50222  16831.7
   11930.9  476260  50585.6  16902
   11933.7  479014  51149.1  17001.5
   11936.4  481791  51891.7  17143.1
   11939.2  483669  52572.4  17339.7
   11942.3  484989  53359.1  17663.4
   11945.1  489881  54471.8  18097.2
   11948.2  493875  55489.6  18500.1
   11951.3  497558  56334.3  18844
   11954.8  500470  56956.1  19143
   11957.9  504168  57475  19408.1
   11961.3  508089  57913.8  19571.3
   11964.7  512086  58255.8  19666.6
   11968.5  515776  58478.7  19828.9
   11971.9  520515  58791.7  20148.3
   11975.6  524426  58976.6  20418.8
   11979.4  528849  59216.6  20580.3
   11983.1  532694  59397.7  20668
   11987.2  535747  59515.8  20654.7
   11991.3  543348  60227.9  20777.5
   11995.3  547464  60694  20779.4
   11999.4  551797  61342.3  20929.3
   12003.5  557570  62314.4  21309.3
   12007.9  562763  63406.7  21782.5
   12012.3  566935  64481.9  22277.6
   12016.7  573741  65868.3  22893.9
   12021.1  578368  66910.6  23387.3
   12025.8  585381  68102  23962.7
   12030.5  590413  68849.4  24359.2
   12035.3  597005  69691.8  24768.7
   12040  602028  70303.2  25113.4
   12045  609049  71050.7  25478.1
   12050.1  613757  71507.2  25742.9
   12055.2  618891  72005.8  25904.8
   12060.2  627710  72956.4  26209.8
   12065.3  634109  73671  26555.8
   12070.7  639854  74343.6  26868.9
   12076.1  646282  75178.3  27108.1
   12081.5  653868  76246  27440.4
   12086.9  660391  77272.7  27801.7
   12092.6  668034  78507.5  28356.2
   12098.3  673358  79546.3  28944.7
   12104.1  680583  80829.1  29613.2
   12109.8  687459  82106  30263.9
   12115.9  695270  83499.9  31019.7
   12121.6  702700  84742.8  31704.5
   12127.7  708519  85773.8  32301.4
   12133.8  717686  87096.8  32908.3
   12140.2  725318  88184.8  33321.4
   12146.3  732130  89102.8  33660.5
   12152.8  740303  90158.9  34083.7
   12159.2  746178  90927  34425
   12165.6  753779  91934.1  34901.3
   12172.4  762412  93170.3  35509.8
   12178.9  771291  94455.5  36134.3
   12185.7  778890  95698.8  36696.9
   12192.5  786213  96955  37347.6
   12199.6  793220  98264.3  38046.3
   12206.4  802345  99829.6  38822.1
   12213.5  811414  101427  39675.1
   12220.7  818660  102810  40503.1
   12227.8  827858  104382  41372.1
   12235  836224  105859  42160.2
   12242.5  844031  107235  42915.5
   12250  851804  108576  43564.7
   12257.5  858572  109770  44075.1
   12265.1  867905  111269  44771.6
   12272.6  875564  112513  45419.1
   12280.5  884331  113908  46125.7
   12288.4  892352  115247  46866.4
   12296.3  898778  116414  47597.1
   12304.2  909978  118208  48579
   12312.1  917248  119573  49383.8
   12320.4  926116  121210  50338.9
   12328.7  934528  122815  51266.9
   12336.6  942674  124418  52207.1
   12345.2  951250  126105  53202.3
   12353.5  960927  127937  54205.6
   12362.2  967728  129398  55067
   12370.5  976304  131055  56020.5
   12379.2  985173  132790  57013
   12387.9  995185  134583  57963.6
   12396.9  1.0015e+06  135916  58777.3
   12405.6  1.00905e+06  137363  59632
   12414.7  1.01743e+06  138979  60589.9
   12423.8  1.02658e+06  140711  61643.8
   12432.8  1.03119e+06  141800  62444.8
   12441.9  1.04177e+06  143799  63676.9
   12451.4  1.05026e+06  145542  64828
   12460.5  1.05646e+06  146954  65800.3
   12470  1.06708e+06  149071  67109.6
   12479.5  1.07396e+06  150673  68189
   12489  1.08052e+06  152245  69229.5
   12498.9  1.08695e+06  153825  70273
   12508.4  1.09425e+06  155516  71368.6
   12518.3  1.10134e+06  157195  72483.3
   12528.2  1.10906e+06  158945  73653.1
   12538.1  1.11873e+06  161017  74941
   12548.1  1.12647e+06  162743  76108.9
   12558.4  1.13132e+06  164109  77128.9
   12568.7  1.13868e+06  165843  78360
   12578.7  1.14655e+06  167641  79607.1
   12589.1  1.15314e+06  169276  80827.4
   12599.4  1.16021e+06  170984  82117.8
   12610.2  1.16704e+06  172728  83401.1
   12620.6  1.17634e+06  174842  84900.6
   12631.3  1.18278e+06  176521  86200.1
   12642.1  1.18902e+06  178292  87519.8
   12652.9  1.1952e+06  180023  88808.5
   12663.8  1.20106e+06  181709  90092.3
   12674.6  1.20895e+06  183716  91545.2
   12685.8  1.2144e+06  185345  92864
   12696.7  1.22125e+06  187189  94266.1
   12708  1.22748e+06  188965  95675.2
   12719.3  1.2328e+06  190567  97038.4
   12730.6  1.24138e+06  192720  98648.6
   12741.9  1.24696e+06  194408  100076
   12753.6  1.25175e+06  196003  101475
   12764.9  1.25857e+06  197882  103047
   12776.7  1.26508e+06  199772  104627
   12788.4  1.27181e+06  201750  106240
   12800.2  1.27671e+06  203441  107749
   12812  1.28326e+06  205415  109361
   12824.2  1.28566e+06  206752  110708
   12836  1.29267e+06  208831  112402
   12848.2  1.30057e+06  211066  114218
   12860.5  1.30431e+06  212642  115722
   12872.4  1.30923e+06  214432  117345
   12885.1  1.31251e+06  215960  118852