File: data/ass_10K_scan3.xdi
# XDI/1.0
# Column.1: energy eV
# Column.2: i0
# Column.3: itrans
# Column.4: irefer
# Beamline.name: SSRL 2-3
# Beamline.notes: vert slits = 0.6mm
# Detector.I0: N2 15cm
# Detector.I1: Ar 30cm
# Detector.I2: Ar 15cm
# Element.edge: K
# Element.symbol: As
# Mono.d_spacing: 3.13550
# Mono.name: Si(111)
# Mono.notes: unfocused, detuned 75%, clockwise at E=12000eV
# Sample.formula: AsS
# Sample.name: AsS (realgar)
# Sample.prep: powder on tape (5 layers)
# Sample.reference: GaAs powder
# Sample.temperature: 10K
# Scan.start_time: 1997-04-19 17:37:58
# ///
#    Note: mono d_spacing is nominal!
#     exafs to K16, GaAs in IR
#     413  E XMU XMUR I0
#-------------
#   energy   i0   itrans  irefer
   11634.9  540319  71348.5  29315
   11654.9  535418  71334.5  29651
   11675.1  530754  71345.5  30013
   11695  523989  71040.5  30236
   11714.9  518180  70890.5  30521
   11735  514044  70908.5  30879
   11755.1  508192  70696.5  31136
   11775  502913  70518.5  31416
   11794.9  498293  70397.5  31717
   11814.9  492864  70059.5  31897
   11835  488525  69618.5  32010
   11845.4  485901  68890.5  31769
   11846.6  485455  68741.5  31710
   11847.5  486351  68787.5  31722
   11848.4  485561  68592.5  31638
   11849.6  485412  68426.5  31557
   11850.6  484938  68246.5  31462
   11851.5  485198  68146.5  31405
   11852.4  483877  67781.5  31234
   11853.6  484768  67622.5  31155
   11854.5  484469  67337.5  30995
   11855.4  485226  67143.5  30891
   11856.4  484515  66660.5  30625
   11857.6  485047  66086.5  30301
   11858.5  483056  65214.5  29849
   11859.4  483598  64532.5  29459
   11860.6  482123  62883.5  28562
   11861.6  482183  61436.5  27752
   11862.5  481131  59146.5  26517
   11863.4  480569  56209.5  24908
   11864.6  478821  49244.5  21209
   11865.5  479120  41728.5  17384
   11866.5  478433  32689.5  13053
   11867.4  479323  22300.5  8358
   11868.6  478910  11848.5  3911
   11869.5  479307  8628.5  2508
   11870.5  477994  9242.5  2495
   11871.4  478081  12282.5  3296
   11872.6  477314  17886.5  4889
   11873.5  476630  20869.5  5790.01
   11874.4  476321  22126.5  6228
   11875.4  476579  22056.5  6326
   11876.6  476678  21142.5  6268
   11877.5  476470  20796.5  6319
   11878.4  476806  20883.5  6482
   11879.4  476369  21149.5  6644
   11880.6  475916  21611.5  6877
   11881.5  475773  21874.5  7000
   11882.4  475632  22076.5  7093.01
   11883.7  475666  22352.5  7194
   11884.6  474363  22477.5  7223
   11885.5  474078  22619.5  7271
   11886.4  473691  22759.5  7322
   11887.6  474260  22989.5  7410
   11888.6  474507  23157.5  7474.01
   11889.5  474344  23338.5  7529
   11890.4  474795  23554.5  7593
   11891.6  473926  23809.5  7669
   11892.6  474174  24046.5  7742
   11893.5  473515  24229.5  7812
   11894.4  473398  24438.5  7899
   11895.6  473124  24712.3  8044.77
   11896.9  473579  24990.3  8187.84
   11898.4  473116  25260.4  8305.99
   11899.7  473594  25472.4  8372.23
   11901.2  473512  25644.6  8405.54
   11903  474290  25809.7  8450.93
   11904.6  474901  25865.9  8478.4
   11906.4  475755  25873.1  8496.94
   11908.3  476608  25804.4  8499.56
   11910.1  478239  25698.7  8467.26
   11912.3  479927  25447.9  8373.03
   11914.2  481420  25184.3  8268.89
   11916.3  482972  24841.7  8161.82
   11918.8  484454  24448.1  8087.83
   11921  487232  24230.5  8081.92
   11923.4  489078  24018  8049.08
   11925.9  491106  23920.5  8038.32
   11928.4  493010  23925  8040.65
   11930.9  496178  24057.6  8078.04
   11933.7  498664  24301.1  8116.52
   11936.4  500710  24679.8  8194.07
   11939.2  503984  25214.4  8342.7
   11942.3  504946  25773.1  8552.41
   11945.1  508904  26442.8  8802.2
   11948.2  514263  27205.6  9092.07
   11951.3  516897  27722.3  9298.01
   11954.8  521107  28206.1  9499.03
   11957.9  524500  28498  9652.13
   11961.3  528023  28682.8  9727.3
   11964.7  531817  28796.8  9750.55
   11968.5  536694  28889.7  9816.88
   11971.9  539954  28887.6  9918.3
   11975.6  543643  28867.6  10013.8
   11979.4  548403  28908.7  10082.3
   11983.1  552190  28908.7  10094
   11987.2  554949  28854.8  10050.7
   11991.3  561670  29047.9  10062.5
   11995.3  566786  29250.1  10056.4
   11999.4  570805  29506.2  10098.3
   12003.5  576910  30014.5  10291.4
   12007.9  582139  30635.7  10557.5
   12012.3  584632  31223  10814.6
   12016.7  592596  32152.3  11204.9
   12021.1  598158  32903.6  11524.2
   12025.8  603390  33543  11840.7
   12030.5  609905  34049.4  12076.2
   12035.3  615976  34451.8  12278.7
   12040  621379  34734.2  12438.4
   12045  627211  34948.7  12566.1
   12050.1  634378  35210.2  12718.9
   12055.2  637764  35263.8  12733.8
   12060.2  646711  35649.4  12846.8
   12065.3  654334  36008  13018.8
   12070.7  660817  36357.6  13183.9
   12076.1  668366  36835.3  13331.1
   12081.5  675616  37370  13492.4
   12086.9  681676  37899.8  13678.7
   12092.6  689068  38568.5  13966.2
   12098.3  694564  39144.3  14273.7
   12104.1  702391  39885.1  14649.2
   12109.8  709197  40578  14983.9
   12115.9  717428  41367.9  15390.6
   12121.6  725560  42091.8  15778.5
   12127.7  731681  42671.8  16100.4
   12133.8  740379  43351.8  16414.3
   12140.2  747094  43876.8  16638.4
   12146.3  755236  44425.8  16829.5
   12152.8  764977  45009.9  17054.7
   12159.2  773123  45498  17265
   12165.6  780257  45933.2  17480.4
   12172.4  788642  46507.3  17770.8
   12178.9  796624  47089.5  18062.3
   12185.7  804180  47747.7  18368.9
   12192.5  812803  48521  18745.6
   12199.6  821239  49345.3  19159.3
   12206.4  830247  50216.6  19584.1
   12213.5  837723  51006  20003.1
   12220.7  845301  51787.4  20444
   12227.8  854938  52650.8  20930.1
   12235  861979  53343.2  21299.2
   12242.5  869942  54090.7  21697.4
   12250  875728  54689.2  22007.7
   12257.5  885404  55524.8  22356.1
   12265.1  894836  56335.4  22731.6
   12272.6  901994  56990.9  23071.1
   12280.5  911523  57808.6  23478.7
   12288.4  919236  58507.2  23854.3
   12296.3  928652  59317  24313.1
   12304.2  937365  60101.7  24763.9
   12312.1  943711  60758.5  25153.9
   12320.4  954381  61747.2  25699.9
   12328.7  962490  62600  26192.9
   12336.6  971707  63542.9  26738.1
   12345.2  980074  64486.8  27283.3
   12353.5  988116  65411.7  27792.6
   12362.2  997518  66453.6  28360
   12370.5  1.00572e+06  67385.6  28888.4
   12379.2  1.01484e+06  68371.6  29439
   12387.9  1.02353e+06  69294.7  29936.6
   12396.9  1.03216e+06  70208.7  30450.3
   12405.6  1.04114e+06  71119.9  30974
   12414.7  1.04682e+06  71808  31406.9
   12423.8  1.05602e+06  72761.1  31975.8
   12432.8  1.06584e+06  73768.3  32575.8
   12441.9  1.07173e+06  74522.6  33096.9
   12451.4  1.07817e+06  75357.8  33664
   12460.5  1.0855e+06  76268.1  34252.3
   12470  1.09285e+06  77224.4  34860.6
   12479.5  1.10118e+06  78235.8  35518
   12489  1.11026e+06  79324.1  36198.4
   12498.9  1.11884e+06  80405.5  36846
   12508.4  1.12697e+06  81455  37492.6
   12518.3  1.1352e+06  82532.5  38167.3
   12528.2  1.14022e+06  83375  38742.1
   12538.1  1.15161e+06  84678.6  39526
   12548.1  1.15878e+06  85649.1  40166.9
   12558.4  1.16736e+06  86761.7  40897.9
   12568.7  1.17475e+06  87743.4  41580
   12578.7  1.1841e+06  88883  42344.2
   12589.1  1.19091e+06  89843.6  43021.4
   12599.4  1.19764e+06  90822.4  43739.7
   12610.2  1.2059e+06  91928.2  44541.1
   12620.6  1.21452e+06  93110.9  45358.6
   12631.3  1.22692e+06  94616.7  46345.1
   12642.1  1.23448e+06  95774.6  47160.8
   12652.9  1.24498e+06  97196.5  48102.5
   12663.8  1.25183e+06  98281.3  48891.3
   12674.6  1.25969e+06  99517.3  49761.2
   12685.8  1.26328e+06  100409  50458.1
   12696.7  1.27311e+06  101747  51399.1
   12708  1.28034e+06  102908  52275.2
   12719.3  1.28336e+06  103727  52969.4
   12730.6  1.29063e+06  104902  53875.6
   12741.9  1.29379e+06  105766  54610.9
   12753.6  1.30049e+06  106933  55528.3
   12764.9  1.30477e+06  107869  56344.9
   12776.7  1.31217e+06  109104  57316.4
   12788.4  1.31816e+06  110246  58221.1
   12800.2  1.32218e+06  111229  59072.8
   12812  1.32544e+06  112194  59890.6
   12824.2  1.32676e+06  112995  60657.5
   12836  1.33267e+06  114175  61622.4
   12848.2  1.33559e+06  115135  62484.5
   12860.5  1.33691e+06  115958  63283.6
   12872.4  1.34253e+06  117106  64254.7
   12885.1  1.34476e+06  118018  65128