File: data/fe_metal_rt.xdi
# XDI/1.0 GSE/1.0
# Column.1: energy eV
# Column.2: mutrans
# Column.3: i0
# Element.edge: K
# Element.symbol: Fe
# Scan.edge_energy: 7112.
# Mono.name: Si 111
# Mono.d_spacing: 3.13550
# Beamline.name: 13-BM-D
# Beamline.collimation: none
# Beamline.focusing: no
# Beamline.harmonic_rejection: detuned 50%
# Facility.name: APS
# Facility.energy: 7.00 GeV
# Facility.xray_source: APS bending magnet
# Scan.start_time: 2002-03-16T19:49:43
# Detector.I0: 15cm  N2
# Detector.I1: 15cm  N2
# Sample.name: Fe metal foil
# Sample.prep: standard foil (Joe Wong boxed set)
# ///
# room temperature
# measured at beamline 13-BM-D
# vert slits = 2mm (at 45m)
#----
#   energy       mutrans            i0
  6962       0.106329        303156.00
  6982       0.086022    305821.00
  7002       0.0657619    305919.00
  7022       0.0459343    305925.00
  7042       0.0269567    306302.00
  7062       0.00844816    305804.00
  7082      -0.00698644    305581.00
  7092.5      -0.0108797    305088.00
  7093.5      -0.0108276    305096.00
  7094.5      -0.0113307    305165.00
  7095.5      -0.0112254    304944.00
  7096.5      -0.0113239    305173.00
  7097.5      -0.0108591    305304.00
  7098.5      -0.00938568    305137.00
  7099.5      -0.00873056    305105.00
  7100.5      -0.00730342    304823.00
  7101.5      -0.00597284    304705.00
  7102.5      -0.00429583    304850.00
  7103.5      -0.00182119    304687.00
  7104.5       0.00273092    304929.00
  7105.5       0.00869627    304623.00
  7106.5       0.0160602    304520.00
  7107.5       0.0283209    304602.00
  7108.5       0.0506897    304586.00
  7109.5       0.104568        304428.00
  7110.5       0.273986        304320.00
  7111.5       0.573568        304401.00
  7112.5       0.76914        304454.00
  7113.5       0.904958        304273.00
  7114.5       0.999111        304428.00
  7115.5        1.03408        304007.00
  7116.5        1.0801        303372.00
  7117.5        1.22733        304658.00
  7118.5        1.44173        304164.00
  7119.5        1.66795        304090.00
  7120.5        1.90577        303894.00
  7121.5        2.10728        303948.00
  7122.5        2.25286        303835.00
  7123.5        2.36861        303762.00
  7124.5        2.46165        303766.00
  7125.5        2.54885        303708.00
  7126.5        2.64614        303682.00
  7127.5        2.76614        303609.00
  7128.5        2.90701        303636.00
  7129.5        3.03108        303384.00
  7130.5        3.0892        305003.00
  7131.5        3.03463        305585.00
  7132.88        2.87777        305376.00
  7134.71        2.7121        305472.00
  7136.61        2.66755        305426.00
  7138.58        2.72739        305145.00
  7140.63        2.78921        305164.00
  7142.76        2.77531        305076.00
  7144.97        2.77033        305205.00
  7147.25        2.85892        305114.00
  7149.61        2.95183        304923.00
  7152.04        2.9908        304979.00
  7154.55        2.98714        304819.00
  7157.14        2.95863        304865.00
  7159.8        2.95101        304825.00
  7162.54        2.92902        304744.00
  7165.35        2.89521        304689.00
  7168.25        2.87332        304656.00
  7171.21        2.83152        303453.00
  7174.26        2.75104        304714.00
  7177.38        2.65969        304521.00
  7180.57        2.62373        304535.00
  7183.85        2.64906        304371.00
  7187.2        2.72426        304193.00
  7190.62        2.821        304323.00
  7194.13        2.88257        304219.00
  7197.7        2.82199        304239.00
  7201.36        2.70188        304214.00
  7205.09        2.57251        304144.00
  7208.9        2.56832        304124.00
  7212.78        2.79235        304018.00
  7216.74        3.07646        304981.00
  7220.78        3.17461        306131.00
  7224.89        3.02264        305869.00
  7229.08        2.77359        305882.00
  7233.34        2.55172        305994.00
  7237.69        2.4543        305742.00
  7242.1        2.48451        305729.00
  7246.6        2.56397        305649.00
  7251.17        2.5751        305561.00
  7255.81        2.52968        305586.00
  7260.54        2.55689        305412.00
  7265.34        2.59755        305114.00
  7270.21        2.65844        305755.00
  7275.16        2.73234        305276.00
  7280.19        2.7691        305276.00
  7285.3        2.83079        305045.00
  7290.48        2.81492        305067.00
  7295.73        2.66068        305297.00
  7301.07        2.51755        304901.00
  7306.48        2.43956        305868.00
  7311.96        2.42435        304888.00
  7317.53        2.41988        304911.00
  7323.16        2.41181        304826.00
  7328.88        2.40331        304800.00
  7334.67        2.36759        304723.00
  7340.54        2.3588        304753.00
  7346.48        2.43224        304672.00
  7352.5        2.51892        304600.00
  7358.6        2.58439        304399.00
  7364.77        2.61907        304517.00
  7371.02        2.57634        305218.00
  7377.35        2.43312        306571.00
  7383.75        2.27931        306243.00
  7390.23        2.25184        306367.00
  7396.78        2.27637        306241.00
  7403.41        2.27272        306125.00
  7410.12        2.27236        305935.00
  7416.9        2.26918        307005.00
  7423.76        2.23997        305616.00
  7430.7        2.22115        306084.00
  7437.71        2.23428        305825.00
  7444.8        2.28002        305777.00
  7451.96        2.30556        305923.00
  7459.2        2.29786        305615.00
  7466.52        2.26135        305781.00
  7473.91        2.20377        305376.00
  7481.39        2.16324        305487.00
  7488.93        2.11427        305532.00
  7496.55        2.08795        305551.00
  7504.25        2.09233        304510.00
  7512.03        2.08815        305492.00
  7519.88        2.07352        305343.00
  7527.81        2.06888        305266.00
  7535.81        2.06482        305314.00
  7543.89        2.04921        305242.00
  7552.05        2.04191        305041.00
  7560.28        2.05264        305114.00
  7568.59        2.04641        305039.00
  7576.98        2.01133        305000.00
  7585.44        1.973        305096.00
  7593.98        1.9536        305688.00
  7602.59        1.94444        306913.00
  7611.28        1.92284        306910.00
  7620.05        1.9091        306629.00
  7628.89        1.90303        306463.00
  7637.81        1.88237        306567.00
  7646.81        1.85784        306433.00
  7655.88        1.84335        306345.00
  7665.03        1.83717        307956.00
  7674.26        1.83443        306401.00
  7683.56        1.82917        306417.00
  7692.94        1.811        306221.00
  7702.39        1.79235        306128.00
  7711.92        1.77103        306102.00
  7721.52        1.75043        306030.00
  7731.21        1.73591        305863.00
  7740.97        1.72242        310108.00
  7750.8        1.70848        305758.00
  7760.72        1.69337        305835.00
  7770.7        1.67392        305803.00
  7780.77        1.65693        306099.00
  7790.91        1.64184        305565.00
  7801.12        1.62942        305654.00
  7811.42        1.61756        305599.00
  7821.79        1.60523        305529.00
  7832.23        1.5924        306067.00
  7842.76        1.57942        305448.00
  7853.35        1.56444        305400.00
  7864.03        1.54743        305316.00
  7874.78        1.52978        305224.00
  7885.61        1.51221        305335.00
  7896.51        1.49652        305100.00
  7907.49        1.4803        305022.00
  7918.55        1.46469        305081.00
  7929.68        1.45017        304935.00
  7940.89        1.43762        304546.00
  7952.18        1.42361        304814.00
  7963.54        1.40998        304792.00
  7969.25        1.40237        305018.00