File: data/se_na2so4_rt.xdi
# XDI/1.0 GSE/1.0
# Column.1: energy eV
# Column.2: time
# Column.3: i0
# Column.4: itrans
# Element.edge: K
# Element.symbol: Se
# Scan.edge_energy: 12658.0
# Mono.name: Si 111
# Mono.d_spacing: 3.13550
# Beamline.name: 13-BM-D
# Beamline.collimation: none
# Beamline.focusing: no
# Beamline.harmonic_rejection: Rh-coated mirror, detuned
# Facility.name: APS
# Facility.energy: 7.00 GeV
# Facility.xray_source: APS bending magnet
# Scan.start_time: 2008-04-10T21:58:50
# Detector.I0: 10cm  N2
# Detector.I1: 10cm  N2 (?)
# Sample.name: Na2SeO4
# Sample.prep: powder on tape, 6 layers
# ///
# room temperature
# measured at beamline 13-BM-D
#----
#   energy       time                i0           itrans
       12508.00       2.000000       121961.4       559275.4
       12523.00       2.000000       119369.4       548592.4
       12538.00       2.000000       119744.4       551587.4
       12553.00       2.000000       119458.4       551479.4
       12568.00       2.000000       119495.4       552761.4
       12583.00       2.000000       119274.4       553011.4
       12598.00       2.000000       119531.4       555338.4
       12613.00       2.000000       119556.4       556547.4
       12628.00       2.000000       119360.4       556406.4
       12643.00       2.000000       119106.4       555033.4
       12648.50       2.000000       119601.4       556274.4
       12649.25       2.000000       119840.4       557311.4
       12650.00       2.000000       119683.4       556276.4
       12650.75       2.000000       119786.4       556389.4
       12651.50       2.000000       119695.4       555505.4
       12652.25       2.000000       119671.4       555042.4
       12653.00       2.000000       119556.4       553748.4
       12653.75       2.000000       119336.4       552020.4
       12654.50       2.000000       120168.4       554932.4
       12655.25       2.000000       120364.4       555035.4
       12656.00       2.000000       120152.4       552467.4
       12656.75       2.000000       120086.4       550098.4
       12657.50       2.000000       120134.4       548118.4
       12658.25       2.000000       120010.4       544520.4
       12659.00       2.000000       119979.4       540336.4
       12659.75       2.000000       119863.4       533836.4
       12660.50       2.000000       119977.4       526326.4
       12661.25       2.000000       119991.4       511760.4
       12662.00       2.000000       119937.4       487186.4
       12662.75       2.000000       119819.4       448437.4
       12663.50       2.000000       119856.4       397297.4
       12664.25       2.000000       119875.4       328561.4
       12665.00       2.000000       119736.4       280648.4
       12665.75       2.000000       119753.4       289728.4
       12666.50       2.000000       119619.4       337714.4
       12667.25       2.000000       119653.4       395947.4
       12668.00       2.000000       120294.4       435053.4
       12668.75       2.000000       120153.4       450869.4
       12669.50       2.000000       120190.4       461307.4
       12670.25       2.000000       120088.4       466827.4
       12671.00       2.000000       120047.4       468654.4
       12671.75       2.000000       120021.4       467349.4
       12672.50       2.000000       119970.4       464762.4
       12673.25       2.000000       120040.4       463116.4
       12674.00       2.000000       120100.4       463502.4
       12674.75       2.000000       119999.4       465987.4
       12675.50       2.000000       120039.4       470294.4
       12676.25       2.000000       119888.4       472590.4
       12677.00       2.000000       119809.4       472847.4
       12677.75       2.000000       119915.4       471371.4
       12678.50       2.000000       119910.4       466542.4
       12679.25       2.000000       119798.4       459957.4
       12680.00       2.000000       119727.4       453842.4
       12680.75       2.000000       119794.4       451529.4
       12681.50       2.000000       120234.4       453660.4
       12682.25       2.000000       120386.4       456142.4
       12683.00       2.000000       120111.4       457773.4
       12683.75       2.000000       120279.4       461331.4
       12684.50       2.000000       120278.4       464012.4
       12685.25       2.000000       120263.4       466394.4
       12686.00       2.000000       120116.4       467735.4
       12686.75       2.000000       120130.4       469353.4
       12687.50       2.000000       120124.4       470831.4
       12688.86       2.000000       120009.4       473957.4
       12691.52       2.000000       120012.4       481550.4
       12694.28       2.000000       119867.4       487772.4
       12697.16       2.000000       119632.4       491207.4
       12700.14       2.000000       120018.4       497011.4
       12703.24       2.000000       119864.4       499618.4
       12706.44       2.000000       119795.4       498838.4
       12709.75       2.000000       119717.4       492884.4
       12713.18       2.000000       119867.4       489095.4
       12716.71       2.000000       119728.4       487093.4
       12720.35       2.000000       119765.4       486374.4
       12724.10       2.000000       119787.4       483741.4
       12727.96       2.000000       119802.4       482909.4
       12731.94       2.000000       119699.4       482452.4
       12736.02       2.000000       119450.4       479077.4
       12740.21       2.000000       119086.4       474644.4
       12744.51       2.000000       119509.4       474961.4
       12748.92       2.000000       119536.4       475919.4
       12753.44       2.000000       119325.4       476029.4
       12758.06       2.000000       119496.4       478114.4
       12762.80       2.000000       119390.4       479181.4
       12767.65       2.000000       119300.4       480153.4
       12772.61       2.000000       118617.4       478529.4
       12777.68       2.000000       119291.4       482080.4
       12782.85       2.000000       119408.4       484980.4
       12788.14       2.000000       119188.4       486652.4
       12793.54       2.000000       119504.4       489760.4
       12799.04       2.000000       119749.4       491679.4
       12804.66       2.000000       120224.4       494553.4
       12810.38       2.000000       119820.4       492913.4
       12816.21       2.000000       119672.4       492024.4
       12822.16       2.000000       119676.4       491699.4
       12828.21       2.000000       119625.4       491199.4
       12834.38       2.000000       119676.4       491426.4
       12840.65       2.000000       119178.4       489058.4
       12847.03       2.000000       119667.4       490848.4
       12853.52       2.000000       119383.4       489892.4
       12860.13       2.000000       119710.4       491303.4
       12866.84       2.000000       119400.4       490664.4
       12873.66       2.000000       119538.4       491621.4
       12880.59       2.000000       119402.4       491729.4
       12887.63       2.000000       119277.4       491985.4
       12894.78       2.000000       119213.4       492377.4
       12902.04       2.000000       119205.4       493617.4
       12909.41       2.000000       119960.4       498213.4
       12916.88       2.000000       119915.4       499324.4
       12924.47       2.000000       119750.4       499501.4
       12932.17       2.000000       119813.4       500515.4
       12939.98       2.000000       119730.4       500581.4
       12947.90       2.000000       119817.4       501797.4
       12955.92       2.000000       119568.4       501451.4
       12964.06       2.000000       119528.4       501797.4
       12972.30       2.000000       119655.4       503009.4
       12980.66       2.000000       119586.4       503058.4
       12989.13       2.000000       119628.4       503802.4
       12997.70       2.000000       119584.4       503985.4
       13006.38       2.000000       119448.4       503877.4
       13015.18       2.000000       119466.4       504671.4
       13024.08       2.000000       119565.4       505777.4
       13033.09       2.000000       119379.4       505766.4
       13042.22       2.000000       119414.4       506737.4
       13051.45       2.000000       119457.4       507698.4
       13060.79       2.000000       119919.4       510828.4
       13070.24       2.000000       119898.4       511691.4
       13079.80       2.000000       119732.4       512066.4
       13089.47       2.000000       119849.4       513543.4
       13099.25       2.000000       119723.4       513921.4
       13109.14       2.000000       119787.4       515024.4
       13119.14       2.000000       119741.4       515778.4
       13129.25       2.000000       119703.4       516465.4
       13139.47       2.000000       119704.4       517314.4
       13149.80       2.000000       119626.4       517690.4
       13160.24       2.000000       119461.4       517825.4
       13170.79       2.000000       119548.4       518975.4
       13181.44       2.000000       119499.4       519540.4
       13192.21       2.000000       119629.4       520909.4
       13203.09       2.000000       119346.4       520480.4
       13214.07       2.000000       119446.4       521758.4
       13225.17       2.000000       119476.4       522947.4
       13236.37       2.000000       119387.4       523523.4
       13247.69       2.000000       119794.4       526111.4
       13259.11       2.000000       119923.4       527711.4
       13270.65       2.000000       118166.4       520933.4
       13282.29       2.000000       119533.4       528035.4
       13294.04       2.000000       119875.4       530688.4
       13305.91       2.000000       120097.4       532501.4
       13317.88       2.000000       120042.4       533642.4
       13329.96       2.000000       119657.4       532854.4
       13342.15       2.000000       119979.4       535208.4
       13354.46       2.000000       119853.4       535675.4
       13366.87       2.000000       119625.4       535579.4
       13379.39       2.000000       119751.4       537140.4
       13392.02       2.000000       119776.4       538121.4
       13404.76       2.000000       119580.4       538285.4