File: data/strontianite.xdi
# XDI/1.0
# Column.1: energy eV
# Column.2: i0
# Column.3: itrans
# Beamline.name: SSRL 4-3 (?)
# Detector.I0: N2 15cm
# Detector.I1: Ar 30cm
# Element.edge: K
# Element.symbol: Sr
# Mono.d_spacing: 1.92009
# Mono.name: Si(220)
# Mono.notes: (?) unfocussed, detuned 50%, clockwise at E=16800eV
# Sample.formula: SrCO3
# Sample.name: SrCO3 strontianite
# Sample.prep: powder mixed with B2O3 (1:10)
# Sample.reference: none
# Sample.temperature: 12K
# Scan.start_time: 1997-03-17 12:43:45
# ///
#    Note: mono d_spacing is nominal!
#     exafs to K15
#     331  E XMU  I0
#-------------
#   energy   i0   itrans
   15700  37319.2  43244.2
   15720  36836.2  42846.2
   15739.9  35668.2  41590.2
   15759.9  36122.2  42307.2
   15780  35608.2  41835.2
   15800  35268.2  41579.2
   15820  34780.2  41124.2
   15840  34486.2  40932.2
   15860  33985.2  40433.2
   15880  33535.2  40009.2
   15900  33149.2  39685.2
   15919.9  32737.2  39289.2
   15939.9  32356.2  38956.2
   15960  31951.2  38581.2
   15980  31388.2  38000.2
   16000  31058.2  37685.2
   16020  30666.2  37314.2
   16039.9  30221.2  36824.2
   16060  29816.2  36395.2
   16080.1  29363.2  35714.2
   16099.9  28899.2  30501.2
   16120  28507.2  23166.2
   16122.4  28420.2  23414.2
   16125  28329.2  23494.2
   16127.4  28252.2  23471.2
   16130  28136.2  23208.2
   16132.4  27917.2  22742.2
   16135  27861.2  22373.2
   16137.4  27830.2  22031.2
   16140  27778.2  21572.2
   16142.4  27739.2  21152.2
   16145  27655.2  20824.2
   16147.4  27549.2  20659.2
   16150  27458.2  20666.2
   16152.4  27364.2  20760.2
   16155  27260.2  20948.2
   16156.4  27207.2  21063.2
   16157.8  27126.1  21171
   16159.4  27054  21317.8
   16160.9  26977.8  21421.4
   16162.6  26926.6  21530
   16164.4  26858.3  21608.5
   16166.3  26799  21702.8
   16168.2  26809.7  21816.1
   16170.1  26787.2  21875.3
   16172.2  26808.8  21931.4
   16174.4  26798.3  21873.3
   16176.7  26838.7  21791.2
   16178.9  26945.1  21774
   16181.3  27031.5  21716.7
   16183.8  27254.8  21832.3
   16186.4  27528  22008.8
   16189  27787.2  22201.2
   16191.8  27995.4  22349.5
   16194.5  28168.5  22467.7
   16197.5  28262.6  22530.8
   16200.4  28422.6  22623.8
   16203.4  28554.5  22719.7
   16206.5  28695.5  22847.6
   16209.8  28826.3  23054.3
   16213  29099.1  23375.9
   16216.4  29302.9  23732.4
   16219.9  29430.6  24028.9
   16223.4  29655.3  24348.2
   16226.9  29860.9  24590.4
   16230.6  30030.5  24759.6
   16234.4  30234  24916.6
   16238.2  30510.5  25112.6
   16242.1  30756  25277.4
   16246.1  30983.3  25401.2
   16250.3  31228.7  25516.8
   16254.3  31498  25668.4
   16258.7  31714.2  25905.8
   16262.9  32019.4  26283.2
   16267.3  32265.6  26572.5
   16271.8  32554.6  26782.6
   16276.4  32872.7  27010.7
   16281  33179.7  27227.7
   16285.7  33397.6  27444.6
   16290.5  33738.6  27834.4
   16295.4  34052.4  28230
   16300.3  34390.2  28585.6
   16305.4  34628  28901.1
   16310.5  35034.7  29309.5
   16315.6  35310.3  29580.8
   16320.9  35634  29828
   16326.2  35936.5  30010.1
   16331.7  36277  30159.1
   16337.2  36572.5  30419
   16342.8  36921.9  30783.9
   16348.5  37239.3  31176.6
   16354.3  37611.6  31575.2
   16360  37946.9  31984.7
   16366  38161.1  32262.1
   16372.1  38525.3  32587.5
   16378.1  38946.5  32911.7
   16384.2  39257.5  33155.8
   16390.4  39571.6  33519.9
   16396.8  39966.6  33953.8
   16403.2  40248.5  34299.7
   16409.6  40680.4  34720.4
   16416.2  40971.2  34988.1
   16422.8  41220  35186.6
   16429.5  41666.8  35546.1
   16436.3  41988.5  35868.4
   16443.2  42348.1  36253.7
   16450  42704.7  36641.8
   16457.2  42991.3  36995.9
   16464.2  43340.8  37357.9
   16471.4  43587.3  37638.8
   16478.8  43909.7  37992.5
   16486  44263  38364.2
   16493.6  44607.3  38678.8
   16500.9  44909.6  38945.3
   16508.5  45116.8  39220.7
   16516.3  45409  39539
   16523.9  45707.1  39861.2
   16531.9  46125.2  40260.3
   16539.7  46294.2  40504.3
   16547.6  46637.2  40836.2
   16555.8  46874.1  41154
   16564  47095  41440.7
   16572.2  47400.8  41742.3
   16580.4  47791.6  42168.8
   16588.8  48209.3  42514.2
   16597.3  48387  42768.6
   16605.7  48577.7  43054.8
   16614.5  48871.3  43421.9
   16623.1  49084.8  43707
   16631.9  49300.3  43946.9
   16640.7  49522.7  44187.7
   16649.7  49735.1  44445.5
   16658.7  50052.5  44773.1
   16667.9  49993.8  44801.7
   16677  50445  45320.1
   16686.4  50685.3  45612.5
   16695.6  50823.4  45850.7
   16705  50950.5  46042.9
   16714.7  51093.6  46186.9
   16724.1  51281.6  46439.9
   16733.8  51349.6  46560.8
   16743.6  51649.5  46909.6
   16753.3  51805.3  47162.2
   16763.3  51856.2  47269.8
   16773.2  51883.9  47366.3
   16783.3  51955.7  47556.7
   16793.4  52188.3  47809
   16803.7  52380  48060.1
   16814  52322.5  48104.2
   16824.3  52416.1  48298.2
   16834.8  52641.5  48547.1
   16845.4  52746  48704.9
   16855.9  52832.4  48841.6
   16866.7  52820.7  48911.3
   16877.4  52853  49031.8
   16888.4  52748.2  49058.2
   16899.2  52739.4  49106.5
   16910.2  52689.6  49139.7
   16921.4  52700.7  49202.8
   16932.6  52627.7  49205.9
   16943.8  52494.7  49171.8
   16955.1  52493.7  49255.6
   16966.5  52393.6  49242.4
   16978  52352.4  49255
   16989.6  52197.2  49165.6
   17001.3  52157  49221