File: data/zn_znse_rt.xdi
# XDI/1.0 GSE/1.0
# Column.1: energy eV
# Column.2: time
# Column.3: i0
# Column.4: itrans
# Element.edge: K
# Element.symbol: Zn
# Scan.edge_energy: 9659.0
# Mono.name: Si 111
# Mono.d_spacing: 3.13550
# Beamline.name: 13-BM-D
# Beamline.collimation: none
# Beamline.focusing: no
# Beamline.harmonic_rejection: Rh-coated mirror, detuned
# Facility.name: APS
# Facility.energy: 7.00 GeV
# Facility.xray_source: APS bending magnet
# Scan.start_time: 2008-04-10T17:00:26
# Detector.I0: 10cm  N2
# Detector.I1: 10cm  N2 (?)
# Sample.name: ZnSe
# Sample.prep: powder on tape, 6 layers
# ///
# room temperature
# measured at beamline 13-BM-D
#----
#   energy       time                i0           itrans
       9509.000       1.000000       103316.7       169556.2
       9524.000       1.000000       100141.7       165477.2
       9539.000       1.000000       100383.7       167101.2
       9554.000       1.000000       100648.7       168696.2
       9569.000       1.000000       100439.7       169553.2
       9584.000       1.000000       100388.7       170654.2
       9599.000       1.000000       100330.7       171760.2
       9614.000       1.000000       100468.7       173198.2
       9629.000       1.000000       100674.7       174594.2
       9644.000       1.000000       100503.7       175145.2
       9649.500       1.000000       100854.7       175757.2
       9650.250       1.000000       101026.7       176052.2
       9651.000       1.000000       101070.7       176104.2
       9651.750       1.000000       100963.7       175877.2
       9652.500       1.000000       100874.7       175621.2
       9653.250       1.000000       100926.7       175640.2
       9654.000       1.000000       100962.7       175581.2
       9654.750       1.000000       100959.7       175448.2
       9655.500       1.000000       100900.7       175197.2
       9656.250       1.000000       100904.7       174984.2
       9657.000       1.000000       100954.7       174766.2
       9657.750       1.000000       100955.7       174327.2
       9658.500       1.000000       100867.7       173707.2
       9659.250       1.000000       100820.7       172998.2
       9660.000       1.000000       100868.7       172011.2
       9660.750       1.000000       100884.7       170408.2
       9661.500       1.000000       100772.7       167764.2
       9662.250       1.000000       100798.7       162857.2
       9663.000       1.000000       100659.7       152700.2
       9663.750       1.000000       100706.7       136040.2
       9664.500       1.000000       100780.7       120579.2
       9665.250       1.000000       100758.7       114293.2
       9666.000       1.000000       100699.7       110283.2
       9666.750       1.000000       100782.7       104715.2
       9667.500       1.000000       100728.7       103011.2
       9668.250       1.000000       100685.7       108719.2
       9669.000       1.000000       100634.7       116195.2
       9669.750       1.000000       100753.7       121102.2
       9670.500       1.000000       100656.7       121796.2
       9671.250       1.000000       100609.7       120971.2
       9672.000       1.000000       100671.7       121293.2
       9672.750       1.000000       100552.7       121982.2
       9673.500       1.000000       100561.7       121167.2
       9674.250       1.000000       100556.7       118748.2
       9675.000       1.000000       100612.7       116844.2
       9675.750       1.000000       100430.7       116634.2
       9676.500       1.000000       100585.7       119397.2
       9677.250       1.000000       100535.7       122560.2
       9678.000       1.000000       100431.7       124937.2
       9678.750       1.000000       100427.7       126151.2
       9679.500       1.000000       100548.7       126583.2
       9680.250       1.000000       100438.7       126574.2
       9681.000       1.000000       100415.7       126899.2
       9681.750       1.000000       100427.7       127404.2
       9682.500       1.000000       100295.7       127566.2
       9683.250       1.000000       100436.7       127945.2
       9684.000       1.000000       100427.7       128066.2
       9684.750       1.000000       100403.7       127972.2
       9685.500       1.000000       100345.7       127590.2
       9686.250       1.000000       100480.7       127270.2
       9687.000       1.000000       100383.7       126752.2
       9687.750       1.000000       100402.7       126476.2
       9688.500       1.000000       100265.7       126119.2
       9689.861       1.000000       100227.7       125771.2
       9692.517       1.000000       100211.7       125689.2
       9695.282       1.000000       100262.7       125205.2
       9698.157       1.000000       100161.7       124478.2
       9701.142       1.000000       100252.7       125067.2
       9704.236       1.000000       100246.7       125022.2
       9707.439       1.000000       100133.7       124782.2
       9710.753       1.000000       100115.7       124945.2
       9714.177       1.000000       100435.7       124809.2
       9717.709       1.000000       100706.7       125203.2
       9721.352       1.000000       100625.7       126047.2
       9725.104       1.000000       100488.7       127064.2
       9728.965       1.000000       100507.7       127750.2
       9732.936       1.000000       101065.7       127737.2
       9737.017       1.000000       100497.7       126069.2
       9741.207       1.000000       100604.7       126383.2
       9745.507       1.000000       100534.7       126685.2
       9749.916       1.000000       100409.7       126951.2
       9754.436       1.000000       100476.7       127819.2
       9759.064       1.000000       100470.7       128832.2
       9763.803       1.000000       100469.7       128916.2
       9768.650       1.000000       100424.7       129061.2
       9773.608       1.000000       100202.7       130013.2
       9778.676       1.000000       100939.7       131400.2
       9783.853       1.000000       100570.7       130951.2
       9789.139       1.000000       100258.7       130318.2
       9794.535       1.000000       100395.7       130250.2
       9800.040       1.000000       100331.7       129932.2
       9805.655       1.000000       100416.7       130196.2
       9811.381       1.000000       100320.7       130221.2
       9817.215       1.000000       100370.7       130865.2
       9823.159       1.000000       100363.7       131836.2
       9829.213       1.000000       100301.7       132984.2
       9835.376       1.000000       100349.7       134212.2
       9841.648       1.000000       100350.7       134809.2
       9848.031       1.000000       100193.7       135091.2
       9854.523       1.000000       101292.7       136458.2
       9861.125       1.000000       100441.7       135139.2
       9867.837       1.000000       100158.7       134999.2
       9874.657       1.000000       100132.7       135174.2
       9881.588       1.000000       100334.7       135847.2
       9888.628       1.000000       100687.7       136543.2
       9895.778       1.000000       100686.7       137188.2
       9903.037       1.000000       100702.7       138119.2
       9910.406       1.000000       100588.7       138775.2
       9917.885       1.000000       100677.7       139927.2
       9925.473       1.000000       100930.7       141313.2
       9933.171       1.000000       100554.7       141608.2
       9940.979       1.000000       100543.7       141788.2
       9948.896       1.000000       100632.7       142100.2
       9956.922       1.000000       100568.7       142171.2
       9965.059       1.000000       100478.7       142470.2
       9973.304       1.000000       100489.7       142946.2
       9981.659       1.000000       100695.7       143888.2
       9990.125       1.000000       101039.7       145043.2
       9998.699       1.000000       100400.7       145006.2
       10007.38       1.000000       99883.70       145049.2
       10016.18       1.000000       100664.7       147070.2
       10025.08       1.000000       100394.7       147546.2
       10034.09       1.000000       100325.7       148220.2
       10043.22       1.000000       100273.7       148812.2
       10052.45       1.000000       100427.7       149498.2
       10061.79       1.000000       100416.7       149905.2
       10071.24       1.000000       100264.7       150210.2
       10080.80       1.000000       100177.7       150577.2
       10090.47       1.000000       100625.7       152087.2
       10100.25       1.000000       100429.7       152514.2
       10110.14       1.000000       100228.7       153082.2
       10120.14       1.000000       100197.7       153974.2
       10130.25       1.000000       100330.7       155013.2
       10140.47       1.000000       100516.7       156215.2
       10150.80       1.000000       100093.7       156303.2
       10161.24       1.000000       100466.7       157621.2
       10171.79       1.000000       100844.7       158939.2
       10182.44       1.000000       100842.7       159614.2
       10193.21       1.000000       100980.7       160511.2
       10204.09       1.000000       100560.7       160548.2
       10215.07       1.000000       101105.7       162254.2
       10226.17       1.000000       100920.7       162859.2
       10237.37       1.000000       100151.7       162446.2
       10248.69       1.000000       100749.7       164369.2
       10260.11       1.000000       100780.7       165322.2
       10271.65       1.000000       101093.7       166792.2
       10283.29       1.000000       100800.7       167211.2
       10295.04       1.000000       100510.7       167554.2
       10306.91       1.000000       100830.7       168958.2
       10318.88       1.000000       101146.7       170263.2
       10330.96       1.000000       100564.7       170194.2
       10343.15       1.000000       100604.7       171158.2
       10355.46       1.000000       100646.7       172129.2
       10367.87       1.000000       100789.7       173298.2
       10380.39       1.000000       100757.7       174204.2
       10393.02       1.000000       100563.7       174842.2
       10405.76       1.000000       100706.7       176106.2