File: data/Ce/CeO2.xdi
#XDI/1.0  XASDataLibrary/1.0
# Column.1: energy eV
# Column.2: i0
# Column.3: itrans
# Mono.d_spacing: 3.134770
# Mono.name: Si(111)
# Element.symbol: Ce
# Element.edge: L3
# Beamline.Name: APS 13-ID-E
# Beamline.xray_source:  3.6cm undulator
# Facility.Name:  APS
# Facility.Ring_Current: 102.0
# Detector.I0: 100 nA/V  200 mm He
# Detector.I1:   50 nA/V  100 mm N2
# Sample.name: CeO2
# Sample.formula: CeO2
# Sample.preparation: powder on tape
# Sample.description: CeO2
# Sample.temperature: room temperature
# Reference.mode: no reference spectra
# Scan.start_time: 2017-02-08 10:14:16
# ScanParameters.E0: 5723.000
# ScanParameters.Legend:  Start, Stop, Step, K-space, Time
# ScanParameters.Region1:    -50.000,   -15.000,     5.000  False  1.00
# ScanParameters.Region2:    -15.000,    15.000,     0.250  False  1.00
# ScanParameters.Region3:      1.984,    10.000,     0.051  True  1.00
# ///
#-----------------------
#   energy         i0            itrans
 5673   179098   252210
 5678   176994   251442
 5683   176532   252715
 5688   180061   259482
 5693   179700   261031
 5698   179763   262824
 5703   179677   263591
 5708   179900   263211
 5708.25   180511   263864
 5708.5   180621   264037
 5708.75   180518   263833
 5709   180506   263700
 5709.25   180395   263559
 5709.5   180759   263957
 5709.75   180763   263974
 5710   180655   263708
 5710.25   180495   263231
 5710.5   180256   262792
 5710.75   180575   263073
 5711   180594   262927
 5711.25   180635   262889
 5711.5   181826   264501
 5711.75   181596   263941
 5712   181529   263543
 5712.25   181388   263147
 5712.5   181682   263346
 5712.75   181624   263071
 5713   181894   263151
 5713.25   181300   261899
 5713.5   180878   260863
 5713.75   180955   260669
 5714   180740   260131
 5714.25   181074   260047
 5714.5   181024   259612
 5714.75   181190   259343
 5715   180670   258293
 5715.25   180703   257867
 5715.5   180660   257169
 5715.75   181072   257358
 5716   181006   256683
 5716.25   181043   256077
 5716.5   181058   255444
 5716.75   181132   254842
 5717   181031   253796
 5717.25   180679   252451
 5717.5   180966   251973
 5717.75   181112   251258
 5718   180556   249401
 5718.25   179999   247599
 5718.5   180638   246992
 5718.75   180507   245553
 5719   180356   243815
 5719.25   179696   241251
 5719.5   180445   240188
 5719.75   179536   237048
 5720   179793   234884
 5720.25   179420   231838
 5720.5   179321   228708
 5720.75   179683   225891
 5721   179808   222597
 5721.25   180070   218904
 5721.5   179870   214910
 5721.75   179760   211119
 5722   179696   207813
 5722.25   179512   204842
 5722.5   179890   202890
 5722.75   179897   200924
 5723   179599   198871
 5723.25   179795   197109
 5723.5   179482   194291
 5723.75   179086   190680
 5724   179311   187117
 5724.25   179665   183002
 5724.5   179220   177351
 5724.75   179684   171848
 5725   179501   165174
 5725.25   179187   157925
 5725.5   179465   150457
 5725.75   179437   142183
 5726   179455   133461
 5726.25   179658   124183
 5726.5   179559   114201
 5726.75   179844   104095
 5727   179680   93797.1
 5727.25   178976   83515.1
 5727.5   179435   74379.1
 5727.75   179255   66136.1
 5728   179407   59298.1
 5728.25   179260   53690.1
 5728.5   179406   49284.1
 5728.75   179209   45792.1
 5729   179030   43097.1
 5729.25   178852   40786.1
 5729.5   178852   38733.1
 5729.75   178642   36612.1
 5730   178542   34521.1
 5730.25   178690   32475.1
 5730.5   178056   30316.1
 5730.75   178792   28500.1
 5731   178062   26700.1
 5731.25   178335   25181.1
 5731.5   178529   23837.1
 5731.75   178455   22635.1
 5732   178145   21592.1
 5732.25   178364   20831.1
 5732.5   178315   20285.1
 5732.75   177928   19951.1
 5733   176846   19837.1
 5733.25   177134   20161.1
 5733.5   177877   20800.1
 5733.75   177177   21542.1
 5734   176604   22468.1
 5734.25   177553   23764.1
 5734.5   178075   25116.1
 5734.75   177898   26366.1
 5735   176904   27437.1
 5735.25   177079   28546.1
 5735.5   177718   29587.1
 5735.75   177998   30254.1
 5736   177298   30618.1
 5736.25   177520   30786.1
 5736.5   177247   30583.1
 5736.75   177152   30157.1
 5737   176931   29550.1
 5737.25   178359   29012.1
 5737.5   177800   28098.1
 5737.75   177142   27102.1
 5738   177034   26195.1
 5738.77   176835   23892.1
 5739.57   177137   23126.1
 5740.39   177214   23802.1
 5741.22   176918   25841.1
 5742.08   176769   29890.1
 5742.95   177098   36795.1
 5743.85   176987   45705.1
 5744.76   177095   54243.1
 5745.69   176722   61026.1
 5746.65   176942   66438.1
 5747.62   176732   70262.1
 5748.61   176548   73248.1
 5749.63   177046   76159.1
 5750.66   176849   78530.1
 5751.71   176990   80360.1
 5752.78   177535   81352.1
 5753.87   177470   80828.1
 5754.98   177529   79634.1
 5756.11   178412   78667.1
 5757.26   178725   77849.1
 5758.43   178470   77147.1
 5759.62   178222   75869.1
 5760.83   178305   73632.1
 5762.05   178361   71207.1
 5763.3   178185   69252.1
 5764.57   177748   67525.1
 5765.86   177484   65586.1
 5767.16   177428   63147.1
 5768.49   177334   60852.1
 5769.83   177185   59437.1
 5771.2   176770   59192.1
 5772.58   176464   59497.1
 5773.99   176597   59798.1
 5775.41   176630   60090.1
 5776.86   176233   60693.1
 5778.32   176368   62100.1
 5779.8   176234   63724.1
 5781.3   176483   65543.1
 5782.83   176455   67496.1
 5784.37   176435   69494.1
 5785.93   176832   71446.1
 5787.51   176846   72773.1
 5789.11   176691   73630.1
 5790.73   177016   74456.1
 5792.37   177496   74974.1
 5794.03   177755   75278.1
 5795.71   177264   75444.1
 5797.41   177067   76030.1
 5799.13   176676   76895.1
 5800.86   176258   77668.1
 5802.62   176394   78325.1
 5804.4   176280   78470.1
 5806.2   175934   78127.1
 5808.01   175730   77482.1
 5809.85   175144   76443.1
 5811.7   174359   75254.1
 5813.58   173768   74054.1
 5815.47   172455   72614.1
 5817.39   173204   72035.1
 5819.32   172984   71280.1
 5821.27   172132   70333.1
 5823.25   171963   69673.1
 5825.24   171808   69058.1
 5827.25   171833   68568.1
 5829.29   171377   68196.1
 5831.34   171909   68617.1
 5833.41   172495   69482.1
 5835.5   172283   70070.1
 5837.61   171853   70559.1
 5839.74   171303   70856.1
 5841.89   170064   71096.1
 5844.06   167797   71100.1
 5846.25   166390   71680.1
 5848.46   168182   73448.1
 5850.68   165709   73057.1
 5852.93   162755   72293.1
 5855.2   164557   73674.1
 5857.49   161957   72990.1
 5859.79   164425   74141.1
 5862.12   160719   72441.1
 5864.47   164899   74867.1
 5866.83   161586   73705.1
 5869.22   166775   76239.1
 5871.62   167731   76814.1
 5874.05   164343   75187.1
 5876.49   163532   74501.1
 5878.95   164034   74623.1
 5881.44   164887   75607.1
 5883.94   165715   77018.1
 5886.46   165961   78007.1
 5889   163411   77323.1
 5891.57   163532   77420.1
 5894.15   162484   76996.1
 5896.75   161714   76421.1
 5899.37   159404   75022.1
 5902.01   120992   56468.1
 5904.67   164382   76783.1
 5907.35   164543   76651.1
 5910.05   164516   76699.1
 5912.76   164556   76995.1
 5915.5   164853   77741.1
 5918.26   164146   78232.1
 5921.04   163020   78577.1
 5923.83   159710   77881.1
 5926.65   127854   62867.1
 5929.49   165304   82797.1
 5932.34   159189   80837.1
 5935.22   163652   83770.1
 5938.11   162774   83778.1
 5941.03   142376   73563.1
 5943.96   166186   86254.1
 5946.92   166814   86680.1
 5949.89   165537   85859.1
 5952.88   165253   85533.1
 5955.9   163614   84404.1
 5958.93   162198   83512.1
 5961.98   160322   82795.1
 5965.05   154887   80563.1
 5968.14   158964   83311.1
 5971.25   161904   85931.1
 5974.38   160642   86033.1
 5977.53   160515   86905.1
 5980.7   159945   87253.1
 5983.89   160653   88177.1
 5987.1   160986   88722.1
 5990.33   161078   88891.1
 5993.58   160427   88547.1
 5996.85   159620   87856.1
 6000.13   159032   87453.1
 6003.44   158766   87168.1
 6006.77   157785   86586.1
 6010.11   158024   87011.1
 6013.48   157768   87479.1
 6016.86   157319   87994.1
 6020.27   157386   89103.1
 6023.69   156923   90013.1
 6027.14   156491   90866.1
 6030.6   155715   91404.1
 6034.09   155087   91948.1
 6037.59   154554   92423.1
 6041.11   153560   92420.1
 6044.65   152686   92437.1
 6048.22   151951   92431.1
 6051.8   151286   92144.1
 6055.4   151060   92099.1
 6059.02   150504   91742.1
 6062.66   152032   92509.1
 6066.32   152363   92933.1
 6070   152398   93491.1
 6073.7   151347   93371.1
 6077.42   151067   93933.1
 6081.16   150478   94381.1
 6084.91   150081   94968.1
 6088.69   150091   95893.1
 6092.49   150059   96875.1
 6096.31   149573   97520.1
 6100.14   148130   97522.1
 6104   147993   98338.1