File: data/Ce/CePO4.xdi
#XDI/1.0  XASDataLibrary/1.0
# Column.1: energy eV
# Column.2: i0
# Column.3: itrans
# Mono.d_spacing: 3.134770
# Mono.name: Si(111)
# Element.symbol: Ce
# Element.edge: L3
# Beamline.Name: APS 13-ID-E
# Beamline.xray_source:  3.6cm undulator
# Facility.Name:  APS
# Facility.Ring_Current: 102.0
# Detector.I0: 100 nA/V  200 mm He
# Detector.I1: 100 nA/V  100 mm N2
# Sample.name: CePO4
# Sample.formula: CePO4
# Sample.preparation: powder on tape
# Sample.description: CePO4
# Sample.temperature: room temperature
# Reference.mode: no reference spectra
# Scan.start_time: 2017-02-08 10:29:33
# ScanParameters.E0: 5723.000
# ScanParameters.Legend:  Start, Stop, Step, K-space, Time
# ScanParameters.Region1:    -50.000,   -15.000,     5.000  False  1.00
# ScanParameters.Region2:    -15.000,    15.000,     0.250  False  1.00
# ScanParameters.Region3:      1.984,    10.000,     0.051  True  1.00
# ///
#-----------------------
#   energy         i0            itrans
 5673   171950   173582
 5678   169727   172977
 5683   172922   177595
 5688   173235   179265
 5693   172397   179683
 5698   173441   182224
 5703   173508   183463
 5708   172431   182846
 5708.25   174048   184505
 5708.5   174267   184732
 5708.75   174135   184608
 5709   174019   184489
 5709.25   173967   184311
 5709.5   174368   184868
 5709.75   174253   184605
 5710   174350   184745
 5710.25   174377   184787
 5710.5   174236   184651
 5710.75   173970   184227
 5711   173859   184083
 5711.25   174097   184325
 5711.5   173868   183944
 5711.75   174186   184287
 5712   174011   184075
 5712.25   173891   183830
 5712.5   173905   183788
 5712.75   173693   183411
 5713   173874   183612
 5713.25   173691   183400
 5713.5   173888   183535
 5713.75   173503   182861
 5714   173383   182584
 5714.25   173469   182544
 5714.5   174130   183343
 5714.75   174205   183294
 5715   173821   182584
 5715.25   173792   182373
 5715.5   174447   182789
 5715.75   174316   182449
 5716   174105   182075
 5716.25   174127   181722
 5716.5   173870   181197
 5716.75   174127   181140
 5717   173834   180329
 5717.25   173190   179333
 5717.5   173579   179257
 5717.75   173624   178756
 5718   173543   178297
 5718.25   174024   178164
 5718.5   174196   177621
 5718.75   173890   176617
 5719   173894   175838
 5719.25   173823   174641
 5719.5   173694   173398
 5719.75   173530   172212
 5720   173228   170947
 5720.25   173508   170120
 5720.5   173404   168940
 5720.75   173166   167606
 5721   173154   166566
 5721.25   173113   165230
 5721.5   173165   164093
 5721.75   173253   162696
 5722   172995   160728
 5722.25   173054   159085
 5722.5   173331   157321
 5722.75   173058   154801
 5723   172603   151834
 5723.25   172423   148953
 5723.5   172743   145865
 5723.75   173032   142171
 5724   173094   137908
 5724.25   173353   133292
 5724.5   173157   127440
 5724.75   173118   121033
 5725   173400   114342
 5725.25   173651   106832
 5725.5   173659   98416.9
 5725.75   173815   89788.9
 5726   173241   80630.9
 5726.25   173666   72386.9
 5726.5   173734   64387.9
 5726.75   173925   57409.9
 5727   173655   51481.9
 5727.25   173569   46736.9
 5727.5   173644   43163.9
 5727.75   173450   40648.9
 5728   173578   39250.9
 5728.25   173323   38814.9
 5728.5   173265   39430.9
 5728.75   173397   41063.9
 5729   173299   43460.9
 5729.25   172756   46419.9
 5729.5   172599   50104.9
 5729.75   172869   54341.9
 5730   172689   58626.9
 5730.25   172526   63077.9
 5730.5   172656   67630.9
 5730.75   172508   72020.9
 5731   171987   76158.9
 5731.25   172060   80343.9
 5731.5   172063   84312.9
 5731.75   172000   88039.9
 5732   171796   91528.9
 5732.25   172273   95154.9
 5732.5   172198   98287.9
 5732.75   172246   101357
 5733   172184   104169
 5733.25   171913   106601
 5733.5   171894   108849
 5733.75   171858   110962
 5734   171990   113091
 5734.25   171603   114690
 5734.5   171043   115939
 5734.75   170646   117045
 5735   170714   118320
 5735.25   169872   118959
 5735.5   169798   119955
 5735.75   170087   120990
 5736   169359   121200
 5736.25   168505   121361
 5736.5   169561   122481
 5736.75   169347   122692
 5737   169352   123027
 5737.25   169209   123266
 5737.5   168496   122972
 5737.75   168039   122890
 5738   168128   123156
 5738.77   169491   124442
 5739.57   169340   125254
 5740.39   169959   126564
 5741.22   170314   128132
 5742.08   170149   129488
 5742.95   169572   130396
 5743.85   169857   131563
 5744.76   170030   132112
 5745.69   170059   131951
 5746.65   170217   131595
 5747.62   170345   130654
 5748.61   171192   130106
 5749.63   171291   128847
 5750.66   171045   127151
 5751.71   171298   125753
 5752.78   171462   124213
 5753.87   171413   122560
 5754.98   172093   121612
 5756.11   171961   120220
 5757.26   171760   118961
 5758.43   172387   118733
 5759.62   172435   118521
 5760.83   172661   118923
 5762.05   172197   119230
 5763.3   172068   120352
 5764.57   171920   121879
 5765.86   171836   123698
 5767.16   171647   125488
 5768.49   171406   127077
 5769.83   171528   128675
 5771.2   171183   129812
 5772.58   171124   131087
 5773.99   170885   132098
 5775.41   170867   133206
 5776.86   171032   134288
 5778.32   170827   134753
 5779.8   171058   135403
 5781.3   170921   135369
 5782.83   171192   135551
 5784.37   171104   135232
 5785.93   171138   135006
 5787.51   171014   134762
 5789.11   171207   134756
 5790.73   171381   134853
 5792.37   171232   134696
 5794.03   171365   134965
 5795.71   171379   135133
 5797.41   170983   134864
 5799.13   171058   135025
 5800.86   170785   134833
 5802.62   170409   134563
 5804.4   170209   134491
 5806.2   169924   134384
 5808.01   169634   134391
 5809.85   169098   134516
 5811.7   168624   134729
 5813.58   167717   134442
 5815.47   167042   134612
 5817.39   166794   135056
 5819.32   167292   136218
 5821.27   167169   136747
 5823.25   167258   137563
 5825.24   167171   138267
 5827.25   167497   139192
 5829.29   167445   139708
 5831.34   166962   139993
 5833.41   167160   140729
 5835.5   166045   140389
 5837.61   167080   141846
 5839.74   166234   141730
 5841.89   166462   142483
 5844.06   165733   142320
 5846.25   166136   142809
 5848.46   165846   142561
 5850.68   166650   143550
 5852.93   166697   144154
 5855.2   164042   142320
 5857.49   164570   143143
 5859.79   165195   144338
 5862.12   165232   144902
 5864.47   164631   145002
 5866.83   164688   145704
 5869.22   164445   145822
 5871.62   164346   146101
 5874.05   163023   145291
 5876.49   162888   145538
 5878.95   162326   145668
 5881.44   160780   145042
 5883.94   162815   147849
 5886.46   161681   147458
 5889   160829   147546
 5891.57   159779   147525
 5894.15   158808   147623
 5896.75   156818   146693
 5899.37   154374   145008
 5902.01   117694   110807
 5904.67   160922   152917
 5907.35   160357   152957
 5910.05   158629   151775
 5912.76   160656   154299
 5915.5   160789   155053
 5918.26   159276   154159
 5921.04   158449   154045
 5923.83   154194   150500
 5926.65   124437   121526
 5929.49   160570   158251
 5932.34   155016   153444
 5935.22   160623   159795
 5938.11   159139   159030
 5941.03   140368   140656
 5943.96   163290   164453
 5946.92   163504   165449
 5949.89   161684   164415
 5952.88   161634   165126
 5955.9   160416   164657
 5958.93   159067   164049
 5961.98   157870   163597
 5965.05   151883   158214
 5968.14   155925   163229
 5971.25   158512   166764
 5974.38   157552   166669
 5977.53   157298   167323
 5980.7   156734   167623
 5983.89   156093   167868
 5987.1   155514   168037
 5990.33   158163   171823
 5993.58   157458   172011
 5996.85   156675   172105
 6000.13   156456   172697
 6003.44   155828   172982
 6006.77   155283   173177
 6010.11   155199   173910
 6013.48   155063   174701
 6016.86   155133   175732
 6020.27   154864   176455
 6023.69   154464   176982
 6027.14   154104   177524
 6030.6   153158   177325
 6034.09   152903   178023
 6037.59   151882   177726
 6041.11   151485   178215
 6044.65   150158   177614
 6048.22   149578   177860
 6051.8   149344   178465
 6055.4   148941   178981
 6059.02   149127   180169
 6062.66   149809   182187
 6066.32   149507   182829
 6070   149333   183670
 6073.7   148912   184252
 6077.42   148172   184421
 6081.16   147616   184774
 6084.91   147615   185908
 6088.69   147062   186284
 6092.49   146998   187279
 6096.31   146728   188052
 6100.14   145898   188120
 6104   144620   187527