File: data/As/as2o3_10K_scan3.xdi
# XDI/1.0
# Column.1: energy eV
# Column.2: i0
# Column.3: itrans
# Column.4: irefer
# Beamline.name: SSRL 2-3
# Beamline.notes: vert slits = 0.6mm
# Detector.I0: N2 15cm
# Detector.I1: Ar 30cm
# Detector.I2: Ar 15cm
# Element.edge: K
# Element.symbol: As
# Mono.d_spacing: 3.13550
# Mono.name: Si(111)
# Mono.notes: unfocused, detuned 75%, clockwise at E=12000eV
# Sample.formula: As2O3
# Sample.name: As2O3 arsenious oxide
# Sample.prep: powder on tape (5 layers)
# Sample.reference: GaAs powder
# Sample.temperature: 10K
# Scan.start_time: 1997-04-19 19:47:10
# ///
#    Note: mono d_spacing is nominal!
#     exafs to K16, GaAs in IR
#     413  E XMU XMUR I0
#-------------
#   energy   i0   itrans  irefer
   11634.9  534204  60646.5  24869
   11654.9  529036  60631.5  25156
   11675.1  523828  60603.5  25443
   11695  517618  60453.5  25673
   11714.9  513172  60480.5  25976
   11735  507781  60363.5  26223
   11755.1  502815  60288.5  26491
   11775  497622  60157.5  26733
   11794.9  492579  59935.5  26929
   11814.9  486739  59437.5  26998
   11835  482140  58470.5  26805
   11845.4  479220  56991.5  26206
   11846.6  479152  56769.5  26119
   11847.5  479898  56672.5  26062
   11848.4  479059  56364.5  25922
   11849.6  478339  55948.5  25724
   11850.6  477956  55637.5  25581
   11851.5  477784  55302.5  25421
   11852.4  478202  55004.5  25274
   11853.6  477857  54403.5  24978
   11854.5  478592  53940.5  24749
   11855.4  477805  53292.5  24438
   11856.4  477546  52556.5  24067
   11857.6  477472  51347.5  23458
   11858.5  476847  50259.5  22909
   11859.4  476768  48977.5  22252
   11860.6  476857  46713.5  21089
   11861.6  476607  44614.5  20001
   11862.5  476352  41809.5  18556
   11863.4  475691  38441.5  16782
   11864.6  474958  31935.5  13380
   11865.5  474870  25880.5  10328
   11866.5  474807  19229.5  7216
   11867.4  474648  12408.5  4322
   11868.6  474991  5097.5  1600
   11869.5  475060  2195.5   648
   11870.5  474573   856.5   243
   11871.4  473845   591.5   166
   11872.6  473087   885.5   248
   11873.5  473173  1311.5   372
   11874.4  472443  1855.5   533
   11875.4  473161  2586.5   764
   11876.6  473369  3675.5  1118
   11877.5  473243  4193.5  1298
   11878.4  472853  4271.5  1337
   11879.4  472821  3900.5  1232
   11880.6  472270  3058.5   974
   11881.5  472421  2649.5   847
   11882.4  472026  2574.5   823.001
   11883.7  471423  2828.5   905
   11884.6  470578  3080.5   987.001
   11885.5  470436  3275.5  1049
   11886.4  470227  3444.5  1106
   11887.6  470678  3715.5  1196
   11888.6  470879  3943.5  1269
   11889.5  470730  4171.5  1342
   11890.4  470296  4380.5  1406
   11891.6  470097  4786.5  1536
   11892.6  469734  5191.5  1665
   11893.5  469725  5577.5  1798
   11894.4  469022  5861.5  1896
   11895.6  469565  6046.25  1970.76
   11896.9  468946  6080.29  1994.84
   11898.4  469580  6128.35  2011.99
   11899.7  469433  6169.44  2021.23
   11901.2  469847  6265.56  2047.54
   11903  469986  6450.72  2110.93
   11904.6  470949  6599.91  2161.39
   11906.4  471304  6740.12  2210.93
   11908.3  472309  6835.37  2248.56
   11910.1  473291  6647.65  2186.26
   11912.3  475181  6120.96  2009.03
   11914.2  476295  5674.3  1858.89
   11916.3  478398  5409.67  1771.82
   11918.8  479506  5394.08  1784.83
   11921  480693  5364.51  1785.92
   11923.4  483812  5093.97  1705.08
   11925.9  485229  4753.47  1594.32
   11928.4  488116  4619  1546.64
   11930.9  490225  4622.56  1545.04
   11933.7  493046  4582.14  1523.52
   11936.4  495624  4691.76  1548.07
   11939.2  497583  4757.42  1567.7
   11942.3  499503  4611.1  1525.41
   11945.1  504013  4483.81  1484.2
   11948.2  507862  4521.56  1503.06
   11951.3  511559  4817.33  1609.01
   11954.8  514370  5037.14  1690.02
   11957.9  519261  5165.97  1742.12
   11961.3  523284  5396.84  1823.3
   11964.7  526934  5560.74  1878.55
   11968.5  530541  5665.68  1921.88
   11971.9  535024  5810.63  1993.29
   11975.6  539328  5896.62  2042.77
   11979.4  543243  6061.65  2106.34
   11983.1  547062  6394.7  2225.98
   11987.2  550056  6654.79  2316.7
   11991.3  557467  6770.91  2338.5
   11995.3  561875  6854.05  2350.37
   11999.4  566863  6777.23  2313.32
   12003.5  572770  6570.44  2249.35
   12007.9  577495  6305.69  2167.46
   12012.3  581336  6126.95  2116.64
   12016.7  588915  6256.25  2175.9
   12021.1  594306  6426.59  2246.25
   12025.8  601452  6562.95  2311.66
   12030.5  606052  6576.35  2330.16
   12035.3  613421  6631.77  2356.73
   12040  618953  6763.23  2416.38
   12045  625825  6897.72  2477.11
   12050.1  630791  7003.24  2523.92
   12055.2  636367  7180.79  2583.8
   12060.2  644541  7372.38  2653.76
   12065.3  652004  7520.98  2710.8
   12070.7  658688  7419.63  2684.92
   12076.1  665748  7542.31  2725.11
   12081.5  671550  7968.01  2873.39
   12086.9  678868  8300.75  2996.74
   12092.6  687184  8469.51  3070.16
   12098.3  693506  8417.31  3070.67
   12104.1  700272  8350.14  3059.25
   12109.8  707943  8529.01  3146.91
   12115.9  715324  8883.89  3306.65
   12121.6  723023  9071.81  3397.47
   12127.7  730331  9051.77  3414.36
   12133.8  738497  9200.75  3483.33
   12140.2  746172  9505.78  3597.38
   12146.3  753649  9466.81  3579.51
   12152.8  760702  9359.89  3541.71
   12159.2  769279  9109  3443
   12165.6  775326  9297.15  3528.36
   12172.4  784750  9753.31  3711.79
   12178.9  793662  10011.5  3824.31
   12185.7  800919  10383.8  3978.9
   12192.5  809177  10797  4153.57
   12199.6  816305  10970.3  4245.32
   12206.4  825549  11073.6  4306.15
   12213.5  833765  11079  4330.05
   12220.7  841765  11165.4  4394.03
   12227.8  850441  11174.8  4425.09
   12235  858871  11224.3  4467.23
   12242.5  866332  11544.7  4613.44
   12250  874170  12054.2  4828.73
   12257.5  880330  12450.8  4992.1
   12265.1  891132  12925.4  5192.55
   12272.6  900086  13043  5265.08
   12280.5  907147  12954.6  5238.68
   12288.4  918125  13113.3  5326.36
   12296.3  924248  13024  5312.12
   12304.2  936349  13191.7  5413.95
   12312.1  943214  13400.4  5528.86
   12320.4  952500  13704.2  5683.86
   12328.7  960578  14141.1  5900.93
   12336.6  968499  14556.9  6112.08
   12345.2  978087  14553.8  6140.3
   12353.5  986520  14656.7  6208.6
   12362.2  994384  15074.7  6418.98
   12370.5  1.00384e+06  15469.6  6611.44
   12379.2  1.0115e+06  15697.6  6734.97
   12387.9  1.01796e+06  15751.7  6790.58
   12396.9  1.02839e+06  16079.8  6950.28
   12405.6  1.03798e+06  16459.9  7143.05
   12414.7  1.04552e+06  16582  7226.89
   12423.8  1.05543e+06  16759.2  7339.81
   12432.8  1.06149e+06  17048.4  7504.82
   12441.9  1.07097e+06  17503.6  7751.9
   12451.4  1.07889e+06  17854.8  7958.05
   12460.5  1.08561e+06  18033.1  8073.28
   12470  1.09497e+06  18387.4  8276.59
   12479.5  1.10145e+06  18606.8  8424.98
   12489  1.11256e+06  18862.2  8576.45
   12498.9  1.11944e+06  19028.6  8700.99
   12508.4  1.12653e+06  19214  8821.61
   12518.3  1.13388e+06  19415.5  8957.32
   12528.2  1.14098e+06  19790  9173.1
   12538.1  1.15103e+06  20136.5  9373.95
   12548.1  1.15914e+06  20515.1  9600.88
   12558.4  1.16481e+06  20948.7  9851.89
   12568.7  1.17228e+06  21307.3  10077
   12578.7  1.18083e+06  21673  10300.2
   12589.1  1.18679e+06  21929.7  10473.4
   12599.4  1.1954e+06  22100.4  10610.7
   12610.2  1.20201e+06  22284.1  10771.1
   12620.6  1.20911e+06  22628.9  10991.6
   12631.3  1.21691e+06  22991.7  11220.1
   12642.1  1.22499e+06  23368.6  11472.8
   12652.9  1.23055e+06  23835.5  11764.5
   12663.8  1.23694e+06  24274.4  12047.3
   12674.6  1.24511e+06  24590.3  12258.1
   12685.8  1.25042e+06  24869.3  12456.1
   12696.7  1.25823e+06  25123.3  12649.1
   12708  1.26633e+06  25491.3  12909.2
   12719.3  1.27202e+06  25717.4  13101.4
   12730.6  1.27924e+06  26023.5  13332.6
   12741.9  1.28387e+06  26395.6  13587
   12753.6  1.28961e+06  26891.8  13932.4
   12764.9  1.29383e+06  27239.9  14184.9
   12776.7  1.3018e+06  27694.1  14513.4
   12788.4  1.30831e+06  28083.4  14798.1
   12800.2  1.31329e+06  28452.7  15069.8
   12812  1.31807e+06  28729  15297.6
   12824.2  1.32201e+06  29062.3  15553.5
   12836  1.32933e+06  29447.7  15842.4
   12848.2  1.33719e+06  29908.1  16177.4
   12860.5  1.33995e+06  30257.5  16462.5
   12872.4  1.34417e+06  30595  16742.7
   12885.1  1.3487e+06  31018.5  17064