File: data/As/as2o3_roomt_scan2.xdi
# XDI/1.0
# Column.1: energy eV
# Column.2: i0
# Column.3: itrans
# Column.4: irefer
# Beamline.name: SSRL 4-1
# Detector.I0: N2 15cm
# Detector.I1: N2 30cm
# Detector.I2: Ar 15cm
# Element.edge: K
# Element.symbol: As
# Mono.d_spacing: 3.13550
# Mono.name: Si(111)
# Mono.notes: unfocused, detuned 40%,counter clockwise at E=12000eV
# Sample.formula: As2O3
# Sample.name: As2O3 arsenious oxide
# Sample.prep: powder, mixed 1:60 with B(OH)3 by wt
# Sample.reference: GaAs powder
# Sample.temperature: room temperature
# Scan.start_time: 1997-01-19 14:12:16
# ///
#    Note: mono d_spacing is nominal!
#     exafs to K15, GaAs in IR
#     320  E XMU XMUR I0
#-------------
#   energy   i0   itrans  irefer
   11650  176879  277850  322182
   11670  175898  277701  323742
   11690  175214  277999  325864
   11710  175255  279432  329316
   11730  173769  278476  329895
   11750  172410  277640  330659
   11770  171875  278078  332943
   11790  170792  277613  334104
   11810  170728  278738  337048
   11830  169460  277464  336946
   11850  168064  274337  333175
   11851.5  168021  273907  332412
   11853  167039  271858  329636
   11854.5  168047  272901  330423
   11856.1  167862  271757  328408
   11857.6  166590  268677  323847
   11859.1  167235  268084  321699
   11860.6  167274  265920  316883
   11862.1  167429  262734  309231
   11863.6  167424  256499  293256
   11865.2  168126  246367  263898
   11866.7  166689  220189  210680
   11868.2  167431  180633  151100
   11869.7  167057  140829  105106
   11871.2  166157  119422  87884.9
   11872.7  166752  127026  94998.9
   11874.2  166677  147942  113474
   11875.8  166569  163690  129612
   11877.3  166206  172875  140769
   11878.8  165885  174586  145655
   11880.3  166387  171220  144960
   11881.8  166145  167288  142816
   11883.3  166163  167714  143602
   11884.8  166099  170752  146101
   11886.4  165221  172899  148049
   11887.9  166891  177502  152146
   11889.4  165819  179355  153669
   11890.9  165266  182187  155880
   11892.4  165459  185294  158517
   11893.9  165225  187568  160940
   11895.5  165274  189068  163202
   11897  164581  188663  163724
   11898.5  165077  189580  164826
   11900  165650  190747  165547
   11902.6  165352  191618  165764
   11905.2  166290  193990  168039
   11908  165632  193731  168205
   11910.8  165204  192088  166743
   11913.6  165747  190370  164764
   11916.6  166643  189659  164076
   11919.6  166165  188128  164037
   11922.7  165919  186427  163836
   11925.9  167370  186101  164004
   11929.2  167902  185302  163296
   11932.5  168424  185104  162441
   11936  168628  184998  161112
   11939.4  169638  185938  161070
   11943  170476  186405  161718
   11946.7  170425  186510  162352
   11950.4  172873  190447  166324
   11954.2  172246  191120  167405
   11958.1  174530  194655  171265
   11962  175275  196512  173124
   11966  175343  197448  173651
   11970.2  177417  200611  177083
   11974.3  178901  203020  181192
   11978.6  179598  204626  184040
   11982.9  181635  208025  187420
   11987.3  182902  210440  189217
   11991.8  183455  211549  188996
   11996.4  184960  213555  189117
   12001  187908  216699  190774
   12005.8  189637  218079  192261
   12010.6  191476  219473  194265
   12015.4  193149  220865  196484
   12020.4  195783  223565  199847
   12025.4  197555  225396  202624
   12030.5  199056  227060  205135
   12035.7  201214  229703  208327
   12040.9  204112  233604  212624
   12046.3  205743  236328  215728
   12051.7  208277  240197  219883
   12057.2  210856  244037  223004
   12062.7  213078  247237  225418
   12068.4  214598  249402  227898
   12074.1  217359  253001  231131
   12079.9  219274  255915  232866
   12085.7  222607  260536  236375
   12091.7  224935  263893  239440
   12097.7  227438  267331  243829
   12103.8  230590  271631  249241
   12110  232479  274623  253189
   12116.2  236666  280413  260062
   12122.6  237460  281936  263075
   12129  242847  288798  270800
   12135.4  245884  292607  274915
   12142  247128  294008  275891
   12148.6  250965  298369  279479
   12155.4  252348  300007  280747
   12162.1  256501  305412  285894
   12169  260124  310595  291257
   12175.9  264891  317475  298491
   12183  267290  321698  302914
   12190  270508  326754  308153
   12197.2  273263  331011  313220
   12204.5  277178  336466  319335
   12211.8  280439  340921  324779
   12219.2  284571  346381  331655
   12226.7  288434  351560  338312
   12234.2  292268  357016  344727
   12241.9  294165  360323  348946
   12249.6  298915  367405  356135
   12257.3  301980  372507  360760
   12265.2  304357  376675  364970
   12273.1  309796  384427  372990
   12281.1  314708  391261  380160
   12289.2  316243  393676  383519
   12297.4  321935  401201  392190
   12305.6  324624  404937  397217
   12314  329614  411872  405253
   12322.4  331604  415261  410003
   12330.8  336447  422521  418657
   12339.4  340386  428913  426537
   12348  344373  435408  434286
   12356.7  348263  441431  441917
   12365.5  353485  449758  450252
   12374.3  357476  455957  458015
   12383.3  361447  462036  464907
   12392.3  365600  468224  471956
   12401.4  369678  474458  479146
   12410.5  373827  480936  486759
   12419.8  378829  488757  495999
   12429.1  382710  495334  504205
   12438.5  387850  503581  514315
   12447.9  389640  507488  520269
   12457.5  395227  516198  530972
   12467.1  398966  522320  539055
   12476.8  404473  530652  549380
   12486.6  409359  538127  558607
   12496.4  413906  545187  567321
   12506.4  416019  549254  572883
   12516.4  421031  557325  582820
   12526.4  426277  565963  593465
   12536.6  430706  573714  603071
   12546.8  433802  579669  610965
   12557.1  439956  589756  623322
   12567.5  443450  596147  631909
   12578  446171  601374  639398
   12588.5  453839  613292  654171
   12599.2  459032  621859  665586
   12609.9  461874  627335  673779
   12620.6  466154  634950  684136
   12631.5  470048  642069  693995
   12642.4  474234  649805  704351
   12653.4  478181  657248  714424
   12664.5  482553  665234  725085
   12675.6  487304  673672  736351
   12686.8  493550  684151  749959
   12698.1  496455  689944  758563
   12709.5  502236  699842  771733
   12715.2  501365  699522  772568