File: data/As/as2o5_roomt_scan3.xdi
# XDI/1.0
# Column.1: energy eV
# Column.2: i0
# Column.3: itrans
# Column.4: irefer
# Beamline.name: SSRL 4-1
# Detector.I0: N2 15cm
# Detector.I1: N2 30cm
# Detector.I2: Ar 15cm
# Element.edge: K
# Element.symbol: As
# Mono.d_spacing: 3.13550
# Mono.name: Si(111)
# Mono.notes: unfocused, detuned 40%,counter clockwise at E=12000eV
# Sample.formula: As2O5
# Sample.name: As2O5 arsenic (V) oxide
# Sample.prep: powder, mixed 1:60 with B(OH)3 by wt
# Sample.reference: GaAs powder
# Sample.temperature: room temperature
# Scan.start_time: 1997-01-19 14:49:01
# ///
#    Note: mono d_spacing is nominal!
#     exafs to K15, GaAs in IR
#     320  E XMU XMUR I0
#-------------
#   energy   i0   itrans  irefer
   11650  171833  293054  340659
   11670  172054  294801  344504
   11690  170463  293413  344737
   11710  169794  293597  346783
   11730  168910  293416  348430
   11750  167865  292921  349685
   11770  166748  292254  350710
   11790  166709  293467  353926
   11810  164940  291502  353315
   11830  163961  290653  353759
   11850  163448  289474  352326
   11851.5  163176  288822  351238
   11853  163097  288436  350448
   11854.5  161999  286147  347165
   11856.1  162241  286180  346431
   11857.6  162497  286131  345413
   11859.1  162014  284486  341747
   11860.6  161800  283135  337442
   11862.1  162287  282615  332067
   11863.6  162800  281401  319071
   11865.2  162043  276897  289537
   11866.7  162466  272060  249745
   11868.2  162715  262028  208934
   11869.7  162067  240674  175397
   11871.2  161817  202079  144788
   11872.7  162330  158975  115562
   11874.2  162459  126801  97433
   11875.8  161215  127297  103409
   11877.3  160813  151967  126336
   11878.8  160612  174704  147413
   11880.3  161468  181673  154744
   11881.8  162210  181932  155833
   11883.3  162322  181284  155555
   11884.8  161203  180003  154421
   11886.4  161501  179696  154192
   11887.9  161224  178428  153286
   11889.4  161001  178380  153265
   11890.9  162053  182276  156407
   11892.4  161321  185515  159306
   11893.9  161441  190015  163781
   11895.5  160824  192774  167175
   11897  160605  194642  169548
   11898.5  160450  195980  170901
   11900  160700  197769  172113
   11902.6  160961  201756  175109
   11905.2  160998  206376  179426
   11908  160359  210388  183300
   11910.8  161107  214673  186908
   11913.6  160578  214167  185830
   11916.6  161513  212958  184767
   11919.6  161391  209066  182863
   11922.7  161636  205965  181573
   11925.9  161788  204180  180483
   11929.2  162671  204685  180880
   11932.5  163111  204721  180054
   11936  164298  204235  178245
   11939.4  164437  201767  175231
   11943  166148  201836  175623
   11946.7  166677  202018  176397
   11950.4  167835  204137  178798
   11954.2  168240  204869  179957
   11958.1  168594  204898  180831
   11962  169193  205435  181493
   11966  171330  208805  184174
   11970.2  171911  210831  186726
   11974.3  173370  213783  191472
   11978.6  174630  216649  195442
   11982.9  176224  220717  199401
   11987.3  177932  224914  202777
   11991.8  180208  228868  204921
   11996.4  181188  230629  204712
   12001  181678  231937  204748
   12005.8  184528  236457  209100
   12010.6  186489  239544  212671
   12015.4  187256  240613  214691
   12020.4  189336  243153  218000
   12025.4  191333  245456  221316
   12030.5  193386  247583  224311
   12035.7  195603  249733  227142
   12040.9  198928  253262  231135
   12046.3  199625  253853  232368
   12051.7  202306  257267  236155
   12057.2  203540  258982  237257
   12062.7  206072  262668  240091
   12068.4  208054  265642  243425
   12074.1  211700  270875  248083
   12079.9  213080  273320  249355
   12085.7  216173  277970  252865
   12091.7  218095  281373  255965
   12097.7  220616  285312  260937
   12103.8  223638  289752  266599
   12110  226145  293902  271661
   12116.2  229818  299608  278608
   12122.6  232544  304102  284480
   12129  234980  308040  289607
   12135.4  237359  311932  293819
   12142  240405  316727  297948
   12148.6  244156  322267  302575
   12155.4  247871  327772  307456
   12162.1  249546  330535  310202
   12169  253400  336091  315965
   12175.9  255172  338804  319307
   12183  258051  342879  323664
   12190  262759  349252  330192
   12197.2  266259  354222  336045
   12204.5  269343  359007  341612
   12211.8  272391  364015  347652
   12219.2  275670  369243  354448
   12226.7  278845  374370  361129
   12234.2  282922  380736  368521
   12241.9  286217  386005  374724
   12249.6  288718  390233  379120
   12257.3  293044  396982  385310
   12265.2  296791  403180  391587
   12273.1  299405  407864  396643
   12281.1  304339  415686  404862
   12289.2  307963  421840  411917
   12297.4  310995  427112  418504
   12305.6  315850  434777  427435
   12314  317871  438556  432539
   12322.4  322748  446248  441624
   12330.8  325993  451813  448699
   12339.4  331277  460152  458658
   12348  333334  463513  463993
   12356.7  339247  473104  473590
   12365.5  342072  477953  479874
   12374.3  345704  483954  487219
   12383.3  350193  491290  495435
   12392.3  354237  498048  503099
   12401.4  358336  505061  511173
   12410.5  363051  512939  520277
   12419.8  368267  521587  530480
   12429.1  370668  526304  536914
   12438.5  374529  533137  545677
   12447.9  377708  539097  553839
   12457.5  383163  548375  565195
   12467.1  387212  555683  574671
   12476.8  391808  563769  584949
   12486.6  395750  570942  593896
   12496.4  400694  579577  604313
   12506.4  405582  588083  614690
   12516.4  408021  593169  621533
   12526.4  412401  601040  631523
   12536.6  416583  608671  641152
   12546.8  421336  617123  651750
   12557.1  424953  623961  660712
   12567.5  430314  633298  672573
   12578  434174  640457  682256
   12588.5  438950  649094  693681
   12599.2  443933  658078  705727
   12609.9  445469  662091  712427
   12620.6  452845  674794  728501
   12631.5  454531  679115  735366
   12642.4  460289  689545  748837
   12653.4  463418  696096  758015
   12664.5  467877  704698  769487
   12675.6  473197  714726  782531
   12686.8  478717  725097  796192
   12698.1  479870  728915  802808
   12709.5  486533  741048  818680
   12715.2  487211  743079  822211