File: data/As/as2o3_100K_scan1.xdi
# XDI/1.0
# Column.1: energy eV
# Column.2: i0
# Column.3: itrans
# Column.4: irefer
# Beamline.name: SSRL 2-3
# Beamline.notes: vert slits = 0.6mm
# Detector.I0: N2 15cm
# Detector.I1: Ar 30cm
# Detector.I2: Ar 15cm
# Element.edge: K
# Element.symbol: As
# Mono.d_spacing: 3.13550
# Mono.name: Si(111)
# Mono.notes: unfocused, detuned 75%, clockwise at E=12000eV
# Sample.formula: As2O3
# Sample.name: As2O3 arsenious oxide
# Sample.prep: powder on tape (2 layers)
# Sample.reference: GaAs powder
# Sample.temperature: 100K
# Scan.start_time: 1997-04-19 23:43:03
# ///
#    Note: mono d_spacing is nominal!
#     exafs to K16, GaAs in IR
#     413  E XMU XMUR I0
#-------------
#   energy   i0   itrans  irefer
   11634.9  514566  94678.5  38613
   11654.9  509390  94407.5  38959
   11675.1  504346  94135.5  39321
   11695  499017  93807.5  39634
   11714.9  494094  93552.5  39984
   11735  489028  93243.5  40305
   11755.1  484094  92931.5  40651
   11775  478930  92541.5  40933
   11794.9  474755  92334.5  41301
   11814.9  469447  91772.5  41485
   11835  464539  91012.5  41527
   11845.4  462196  90184.5  41266
   11846.6  462143  90070.5  41220
   11847.5  461680  89925.5  41151
   11848.4  461087  89712.5  41059
   11849.6  460370  89418.5  40912
   11850.6  460076  89245.5  40824
   11851.5  459990  89102.5  40748
   11852.4  460212  88950.5  40662
   11853.6  459867  88641.5  40471
   11854.5  460276  88452.5  40359
   11855.4  459433  87978.5  40112
   11856.4  459026  87572.5  39860
   11857.6  458881  86904.5  39449
   11858.5  459143  86378.5  39098
   11859.4  458309  85512.5  38564
   11860.6  458747  84254.5  37701
   11861.6  457975  82832.5  36749
   11862.5  457745  80865.5  35342
   11863.4  456349  78146.5  33337
   11864.6  456260  72755.5  29179
   11865.5  455919  66128.5  24587
   11866.5  456933  57260.5  19489
   11867.4  456477  45243.5  14028
   11868.6  457066  28417.5  7960
   11869.5  456382  20414.5  5500
   11870.5  456495  17179.5  4580
   11871.4  455326  18707.5  5041
   11872.6  455295  23923.5  6580
   11873.5  454713  27931.5  7821
   11874.4  455049  31610.5  9040.01
   11875.4  454644  35274.5  10356
   11876.6  454788  39196.5  11881
   11877.5  454480  40358.5  12441
   11878.4  454487  39886.5  12445
   11879.4  453978  38163.5  11999
   11880.6  454190  35474.5  11244
   11881.5  453440  34478.5  10967
   11882.4  453329  34675.5  11038
   11883.7  452155  35877.5  11412
   11884.6  451783  36795.5  11706
   11885.5  451037  37409.5  11920
   11886.4  451199  38049.5  12136
   11887.6  450913  39029.5  12466
   11888.6  451258  39818.5  12718
   11889.5  450913  40517.5  12935
   11890.4  450876  41208.5  13149
   11891.6  451004  42444.5  13530
   11892.6  450329  43474.5  13879
   11893.5  450776  44392.5  14210
   11894.4  450227  44907.5  14448
   11895.6  450442  45209.2  14655.8
   11896.9  449971  45237.3  14729.8
   11898.4  450573  45427.4  14801
   11899.7  450083  45499.4  14786.2
   11901.2  450869  45872.6  14871.5
   11903  451262  46366.7  15041.9
   11904.6  452523  46790.9  15204.4
   11906.4  452705  47109.1  15348.9
   11908.3  453736  47274.4  15438.6
   11910.1  454715  46783.7  15270.3
   11912.3  456177  45712  14885
   11914.2  457251  44882.3  14591.9
   11916.3  458686  44485.7  14492.8
   11918.8  459607  44518.1  14630.8
   11921  461979  44462.5  14723.9
   11923.4  463576  43778  14554.1
   11925.9  465218  43081.5  14339.3
   11928.4  467723  42977  14305.6
   11930.9  470218  43084.6  14306
   11933.7  472958  43189.1  14255.5
   11936.4  475340  43638.8  14318.1
   11939.2  477783  43886.4  14378.7
   11942.3  478983  43553.1  14330.4
   11945.1  483636  43641.8  14406.2
   11948.2  487990  44308.6  14674.1
   11951.3  491294  45375.3  15078
   11954.8  494387  46148.2  15411
   11957.9  498052  46784  15695.1
   11961.3  500851  47588.8  15972.3
   11964.7  505804  48375.7  16223.5
   11968.5  509394  48997.7  16510.9
   11971.9  513227  49622.7  16911.3
   11975.6  518234  50317.6  17316.8
   11979.4  522397  51127.6  17658.3
   11983.1  526026  52177.7  18041
   11987.2  528750  52900.8  18244.7
   11991.3  536622  53822.9  18441.5
   11995.3  540075  54243  18451.4
   11999.4  545836  54525.2  18481.3
   12003.5  550470  54426.5  18493.4
   12007.9  554893  54208.7  18509.5
   12012.3  559373  54235  18621.6
   12016.7  567027  55066.3  19019.9
   12021.1  572065  55707.6  19355.3
   12025.8  577654  56349.9  19719.7
   12030.5  583423  56848.4  19988.2
   12035.3  589181  57491.8  20307.7
   12040  594535  58260.2  20674.4
   12045  600576  59117.7  21070.1
   12050.1  606670  59997.2  21470.9
   12055.2  610762  60748.8  21723.8
   12060.2  619037  61879.4  22101.7
   12065.3  626227  62710  22468.8
   12070.7  632474  63139.6  22670.9
   12076.1  638314  64041.3  22951.1
   12081.5  644552  65378  23387.4
   12086.9  651898  66624.8  23828.7
   12092.6  658860  67563.5  24265.2
   12098.3  664744  68042.3  24624.7
   12104.1  672686  68833.1  25078.3
   12109.8  679285  69854  25605.9
   12115.9  688191  71301.9  26336.6
   12121.6  695440  72258.8  26883.5
   12127.7  701717  72933.8  27311.4
   12133.8  709432  73965.8  27778.3
   12140.2  717737  75027.8  28203.4
   12146.3  723943  75412.8  28320.5
   12152.8  731603  75866.9  28500.7
   12159.2  738446  76229  28688
   12165.6  744883  77338.1  29196.4
   12172.4  754276  79002.3  29936.8
   12178.9  762791  80456.5  30604.3
   12185.7  771175  82071.8  31291.9
   12192.5  778857  83469  31974.6
   12199.6  785287  84472.3  32535.3
   12206.4  792486  85357.6  33022.1
   12213.5  801190  86311  33588.1
   12220.7  810490  87385.4  34240
   12227.8  817623  88155.8  34764.1
   12235  825873  89218.3  35353.2
   12242.5  832902  90573.7  36063.4
   12250  842662  92419.3  36892.7
   12257.5  850411  94016.8  37565.1
   12265.1  857024  95428.4  38209.6
   12272.6  867060  96764  38874.1
   12280.5  875587  97760.6  39395.7
   12288.4  884158  98813.3  39979.4
   12296.3  891142  99578  40507.1
   12304.2  899780  100633  41148
   12312.1  907386  101736  41799.9
   12320.4  916011  103133  42611.9
   12328.7  924460  104690  43487.9
   12336.6  931372  106094  44310.1
   12345.2  940638  107509  45147.3
   12353.5  949957  109071  45987.6
   12362.2  957596  110583  46849
   12370.5  966094  112101  47691.4
   12379.2  974427  113444  48477
   12387.9  982497  114688  49183.6
   12396.9  991480  116135  49991.3
   12405.6  999692  117475  50756
   12414.7  1.00755e+06  118771  51532.9
   12423.8  1.01443e+06  120075  52354.8
   12432.8  1.0247e+06  121975  53471.8
   12441.9  1.03256e+06  123618  54480.9
   12451.4  1.04002e+06  125140  55496
   12460.5  1.04792e+06  126588  56429.3
   12470  1.05616e+06  128089  57407.6
   12479.5  1.06288e+06  129291  58264
   12489  1.07029e+06  130536  59117.5
   12498.9  1.07714e+06  131742  59931
   12508.4  1.08623e+06  133224  60871.6
   12518.3  1.09497e+06  134799  61889.3
   12528.2  1.10175e+06  136343  62902.1
   12538.1  1.1086e+06  137901  63909
   12548.1  1.11558e+06  139532  64988.9
   12558.4  1.1239e+06  141361  66155.9
   12568.7  1.13289e+06  143206  67397
   12578.7  1.1401e+06  144710  68431.2
   12589.1  1.14577e+06  145969  69407.4
   12599.4  1.15297e+06  147323  70462.7
   12610.2  1.15981e+06  148710  71545.1
   12620.6  1.16724e+06  150280  72690.6
   12631.3  1.17342e+06  151775  73810.2
   12642.1  1.18184e+06  153696  75126.8
   12652.9  1.18909e+06  155463  76399.5
   12663.8  1.1946e+06  156996  77525.3
   12674.6  1.19993e+06  158389  78621.1
   12685.8  1.20495e+06  159724  79686.1
   12696.7  1.21389e+06  161483  80987.1
   12708  1.21988e+06  162896  82147.2
   12719.3  1.22696e+06  164441  83374.4
   12730.6  1.23136e+06  165716  84486.6
   12741.9  1.23686e+06  167203  85737
   12753.6  1.24351e+06  168971  87138.4
   12764.9  1.25031e+06  170762  88555.9
   12776.7  1.25617e+06  172463  89969.4
   12788.4  1.2587e+06  173684  91139
   12800.2  1.26414e+06  175261  92452.8
   12812  1.27099e+06  176962  93879.6
   12824.2  1.27739e+06  178639  95301.4
   12836  1.28106e+06  179920  96504.4
   12848.2  1.28824e+06  181727  98009.4
   12860.5  1.29315e+06  183289  99424.6
   12872.4  1.29553e+06  184483  100602
   12885.1  1.30053e+06  186175  102113