File: data/As/as2o3_roomt_scan1.xdi
# XDI/1.0
# Column.1: energy eV
# Column.2: i0
# Column.3: itrans
# Column.4: irefer
# Beamline.name: SSRL 4-1
# Detector.I0: N2 15cm
# Detector.I1: N2 30cm
# Detector.I2: Ar 15cm
# Element.edge: K
# Element.symbol: As
# Mono.d_spacing: 3.13550
# Mono.name: Si(111)
# Mono.notes: unfocused, detuned 40%,counter clockwise at E=12000eV
# Sample.formula: As2O3
# Sample.name: As2O3 arsenious oxide
# Sample.prep: powder, mixed 1:60 with B(OH)3 by wt
# Sample.reference: GaAs powder
# Sample.temperature: room temperature
# Scan.start_time: 1997-01-19 14:12:16
# ///
#    Note: mono d_spacing is nominal!
#     exafs to K15, GaAs in IR
#     320  E XMU XMUR I0
#-------------
#   energy   i0   itrans  irefer
   11650  179062  281173  325987
   11670  178040  280974  327517
   11690  176917  280586  328855
   11710  175015  278964  328694
   11730  174715  279882  331531
   11750  174308  280622  334136
   11770  173368  280415  335699
   11790  172098  279693  336516
   11810  171212  279410  337854
   11830  169899  278125  337682
   11850  168960  275741  334878
   11851.5  167889  273618  332086
   11853  169457  275801  334396
   11854.5  168709  273969  331752
   11856.1  167594  271362  327968
   11857.6  167596  270384  325972
   11859.1  168226  269832  323924
   11860.6  167509  266501  317823
   11862.1  167890  263841  311022
   11863.6  167567  257390  295331
   11865.2  167960  247354  267023
   11866.7  167393  223930  216631
   11868.2  167879  184729  156329
   11869.7  168294  144548  108526
   11871.2  167908  121216  89094.9
   11872.7  167263  126090  94140.9
   11874.2  167382  147281  112717
   11875.8  166906  163168  128925
   11877.3  167107  173314  140853
   11878.8  166608  175383  146185
   11880.3  166590  171610  145179
   11881.8  166363  167580  142985
   11883.3  166587  167970  143780
   11884.8  166934  171371  146620
   11886.4  165962  173480  148497
   11887.9  166466  176854  151543
   11889.4  166536  179885  154092
   11890.9  166634  183452  156951
   11892.4  166471  186207  159259
   11893.9  166748  189124  162221
   11895.5  166283  190121  164014
   11897  165623  189812  164638
   11898.5  166049  190629  165699
   11900  165944  191005  165755
   11902.6  166518  192880  166827
   11905.2  166510  194177  168146
   11908  166698  194939  169210
   11910.8  165792  192759  167294
   11913.6  166308  191017  165296
   11916.6  166188  189137  163551
   11919.6  166581  188572  164364
   11922.7  166152  186656  164001
   11925.9  167263  185941  163841
   11929.2  167541  184854  162879
   11932.5  168167  184777  162138
   11936  169828  186251  162207
   11939.4  170929  187333  162234
   11943  171611  187609  162708
   11946.7  171936  188093  163679
   11950.4  172056  189457  165392
   11954.2  173243  192150  168234
   11958.1  174509  194549  171110
   11962  175792  197015  173532
   11966  176348  198504  174559
   11970.2  177847  201013  177355
   11974.3  179294  203386  181420
   11978.6  180660  205744  184989
   11982.9  183025  209553  188725
   11987.3  183605  211143  189844
   11991.8  184918  213166  190438
   11996.4  186054  214737  190173
   12001  187631  216320  190401
   12005.8  190032  218477  192554
   12010.6  192091  220100  194772
   12015.4  194472  222321  197695
   12020.4  196205  223945  200141
   12025.4  197524  225277  202452
   12030.5  199113  227076  205071
   12035.7  202512  231125  209537
   12040.9  204408  233863  212810
   12046.3  206721  237347  216615
   12051.7  209380  241346  220905
   12057.2  210832  243930  222872
   12062.7  213584  247739  225824
   12068.4  216364  251385  229646
   12074.1  218493  254252  232219
   12079.9  220552  257308  234093
   12085.7  223846  261894  237550
   12091.7  226458  265596  240899
   12097.7  228666  268673  244969
   12103.8  231451  272557  249999
   12110  234259  276649  254952
   12116.2  236446  280066  259624
   12122.6  239990  284859  265694
   12129  242479  288205  270210
   12135.4  245148  291609  273934
   12142  247777  294678  276453
   12148.6  251610  299049  280042
   12155.4  255519  303670  284114
   12162.1  256838  305706  286101
   12169  262168  312929  293367
   12175.9  264359  316731  297713
   12183  266539  320674  301880
   12190  272348  328860  310041
   12197.2  275376  333473  315486
   12204.5  277885  337202  319959
   12211.8  282984  343913  327534
   12219.2  284971  346732  331908
   12226.7  288764  351862  338494
   12234.2  292358  356958  344611
   12241.9  296853  363478  351911
   12249.6  299138  367554  356201
   12257.3  303001  373586  361746
   12265.2  306697  379454  367541
   12273.1  311364  386186  374629
   12281.1  315691  392342  381093
   12289.2  317593  395220  384902
   12297.4  323041  402421  393276
   12305.6  326094  406672  398763
   12314  330149  412397  405673
   12322.4  333044  416900  411534
   12330.8  338324  424714  420712
   12339.4  342828  431782  429303
   12348  346067  437407  436132
   12356.7  350692  444322  444808
   12365.5  354249  450600  451094
   12374.3  358283  456833  458738
   12383.3  363921  464983  467765
   12392.3  365219  467536  471134
   12401.4  369750  474340  478897
   12410.5  373037  479695  485391
   12419.8  380071  490154  497254
   12429.1  384159  496976  505754
   12438.5  389422  505405  516042
   12447.9  391246  509366  522032
   12457.5  396919  518173  532867
   12467.1  401675  525674  542317
   12476.8  405355  531573  550224
   12486.6  409501  538057  558404
   12496.4  415296  546844  568868
   12506.4  420044  554312  578044
   12516.4  421059  557137  582474
   12526.4  427538  567432  594813
   12536.6  431218  574140  603374
   12546.8  435268  581374  612588
   12557.1  441638  591741  625250
   12567.5  444134  596787  632425
   12578  449688  605889  643997
   12588.5  453786  612921  653638
   12599.2  460001  622898  666513
   12609.9  462971  628663  674958
   12620.6  468083  637312  686512
   12631.5  471629  644071  695918
   12642.4  475320  651072  705547
   12653.4  482764  663319  720857
   12664.5  484768  668102  727998
   12675.6  489931  677110  739869
   12686.8  494418  685137  750807
   12698.1  497573  691317  759847
   12709.5  502543  700012  771750
   12715.2  505292  704775  778155