File: data/As/as2o5_roomt_scan2.xdi
# XDI/1.0
# Column.1: energy eV
# Column.2: i0
# Column.3: itrans
# Column.4: irefer
# Beamline.name: SSRL 4-1
# Detector.I0: N2 15cm
# Detector.I1: N2 30cm
# Detector.I2: Ar 15cm
# Element.edge: K
# Element.symbol: As
# Mono.d_spacing: 3.13550
# Mono.name: Si(111)
# Mono.notes: unfocused, detuned 40%,counter clockwise at E=12000eV
# Sample.formula: As2O5
# Sample.name: As2O5 arsenic (V) oxide
# Sample.prep: powder, mixed 1:60 with B(OH)3 by wt
# Sample.reference: GaAs powder
# Sample.temperature: room temperature
# Scan.start_time: 1997-01-19 14:49:01
# ///
#    Note: mono d_spacing is nominal!
#     exafs to K15, GaAs in IR
#     320  E XMU XMUR I0
#-------------
#   energy   i0   itrans  irefer
   11650  173291  295721  343605
   11670  172779  296177  346019
   11690  171637  295579  347186
   11710  171129  296093  349587
   11730  169756  295019  350234
   11750  168481  294144  351035
   11770  167704  294054  352794
   11790  166572  293347  353746
   11810  166393  294204  356522
   11830  164737  292161  355523
   11850  164015  290639  353677
   11851.5  163550  289621  352160
   11853  163723  289728  351941
   11854.5  163577  289086  350695
   11856.1  163788  289057  349917
   11857.6  162872  286936  346390
   11859.1  163116  286611  344356
   11860.6  162488  284543  339298
   11862.1  163653  285278  335532
   11863.6  162989  282050  320756
   11865.2  163754  280295  295276
   11866.7  163204  273972  253863
   11868.2  164312  265757  213755
   11869.7  163014  244026  178333
   11871.2  162875  206301  147757
   11872.7  163239  162531  117916
   11874.2  163330  128637  98465.9
   11875.8  162690  127566  103355
   11877.3  162334  151623  125863
   11878.8  162064  175477  147910
   11880.3  162230  182570  155413
   11881.8  162049  181999  155821
   11883.3  162016  181135  155427
   11884.8  162025  181143  155355
   11886.4  162368  180952  155231
   11887.9  161365  178828  153574
   11889.4  161635  179192  153920
   11890.9  162106  182263  156393
   11892.4  162905  187250  160676
   11893.9  161584  190116  163775
   11895.5  160603  192555  166866
   11897  161066  195263  170013
   11898.5  161682  197586  172258
   11900  161331  198627  172841
   11902.6  160967  201857  175133
   11905.2  161228  206754  179693
   11908  162045  212658  185248
   11910.8  161801  215695  187756
   11913.6  161551  215682  187097
   11916.6  162611  214634  186157
   11919.6  162525  210768  184281
   11922.7  162460  207232  182628
   11925.9  162519  205306  181433
   11929.2  163745  206246  182210
   11932.5  164352  206482  181557
   11936  164662  204853  178750
   11939.4  165095  202780  176065
   11943  166585  202545  176200
   11946.7  166801  202361  176655
   11950.4  167830  204306  178905
   11954.2  168675  205568  180538
   11958.1  169617  206317  182041
   11962  170612  207351  183138
   11966  170376  207821  183262
   11970.2  172282  211461  187218
   11974.3  174016  214765  192277
   11978.6  175842  218322  196904
   11982.9  177382  222334  200810
   11987.3  178708  226097  203795
   11991.8  180143  228951  204982
   11996.4  181510  231225  205221
   12001  183114  233989  206507
   12005.8  185307  237628  210092
   12010.6  186115  239226  212341
   12015.4  188719  242673  216476
   12020.4  191073  245586  220118
   12025.4  191799  246276  221991
   12030.5  193986  248607  225154
   12035.7  196405  250999  228208
   12040.9  198328  252715  230583
   12046.3  200757  255525  233827
   12051.7  203404  258901  237599
   12057.2  206138  262549  240459
   12062.7  207880  265189  242350
   12068.4  210124  268552  246020
   12074.1  211794  271225  248341
   12079.9  215350  276474  252167
   12085.7  216993  279239  253971
   12091.7  219057  282840  257260
   12097.7  221723  286992  262416
   12103.8  224518  291145  267816
   12110  227043  295315  272917
   12116.2  230554  300824  279667
   12122.6  232145  303850  284173
   12129  236209  309955  291323
   12135.4  239652  315230  296860
   12142  241774  318819  299843
   12148.6  245791  324674  304815
   12155.4  247891  328022  307665
   12162.1  250487  332102  311598
   12169  254073  337301  317028
   12175.9  256589  340974  321292
   12183  259592  345267  325820
   12190  263151  350073  330911
   12197.2  267632  356388  338003
   12204.5  270036  360251  342695
   12211.8  273972  366442  349880
   12219.2  277185  371611  356633
   12226.7  280547  376904  363525
   12234.2  283663  382055  369718
   12241.9  287166  387585  376181
   12249.6  290863  393457  382172
   12257.3  294582  399343  387574
   12265.2  298674  406118  394310
   12273.1  302490  412355  400981
   12281.1  304712  416550  405597
   12289.2  308592  423003  412969
   12297.4  313363  430730  421942
   12305.6  317310  437135  429680
   12314  321988  444599  438398
   12322.4  324337  448818  444066
   12330.8  327890  454806  451602
   12339.4  332044  461608  460012
   12348  337477  469715  470195
   12356.7  342603  478197  478683
   12365.5  347003  485274  487066
   12374.3  348794  488742  491922
   12383.3  353265  496041  500087
   12392.3  356829  502127  507109
   12401.4  360245  508190  514203
   12410.5  365480  516820  524082
   12419.8  368564  522464  531247
   12429.1  374450  532134  542721
   12438.5  375977  535696  548130
   12447.9  380906  544153  558870
   12457.5  385557  552215  569115
   12467.1  389747  559785  578787
   12476.8  392973  565948  587062
   12486.6  397848  574470  597450
   12496.4  402233  582309  607057
   12506.4  406938  590536  617145
   12516.4  410523  597285  625718
   12526.4  415425  605956  636562
   12536.6  418426  611881  644376
   12546.8  423827  621288  655988
   12557.1  430172  632133  669255
   12567.5  431290  635202  674507
   12578  438294  647088  689177
   12588.5  440266  651567  696150
   12599.2  445283  660614  708285
   12609.9  450588  670233  721051
   12620.6  453961  677025  730721
   12631.5  457557  684207  740736
   12642.4  462306  693272  752750
   12653.4  465557  699862  761982
   12664.5  470144  708692  773686
   12675.6  474290  716902  784799
   12686.8  480646  728586  799895
   12698.1  482598  733588  807848
   12709.5  489525  746162  824183
   12715.2  490275  748378  827845