File: data/As/as2o5_100K_scan1.xdi
# XDI/1.0
# Column.1: energy eV
# Column.2: i0
# Column.3: itrans
# Column.4: irefer
# Beamline.name: SSRL 2-3
# Beamline.notes: vert slits = 0.6mm
# Detector.I0: N2 15cm
# Detector.I1: Ar 30cm
# Detector.I2: Ar 15cm
# Element.edge: K
# Element.symbol: As
# Mono.d_spacing: 3.13550
# Mono.name: Si(111)
# Mono.notes: unfocused, detuned 75%, clockwise at E=12000eV
# Sample.formula: As2O5
# Sample.name: As2O5 arsenic (V) oxide
# Sample.prep: powder on tape (5 layers)
# Sample.reference: GaAs powder
# Sample.temperature: 100K
# Scan.start_time: 1997-04-19 21:41:34
# ///
#    Note: mono d_spacing is nominal!
#     exafs to K16, GaAs in IR
#     413  E XMU XMUR I0
#-------------
#   energy   i0   itrans  irefer
   11634.9  531640  94214.5  38364
   11654.9  526404  93994.5  38738
   11675.1  520255  93598.5  39031
   11695  514902  93301.5  39365
   11714.9  509974  93077.5  39728
   11735  504661  92775.5  40055
   11755.1  499797  92529.5  40415
   11775  494579  92181.5  40726
   11794.9  489568  91838.5  41018
   11814.9  484705  91415.5  41268
   11835  479460  90657.5  41324
   11845.4  477567  90056.5  41163
   11846.6  476389  89789.5  41038
   11847.5  476435  89709.5  41001
   11848.4  475504  89492.5  40904
   11849.6  475467  89383.5  40842
   11850.6  474312  89096.5  40708
   11851.5  474555  89051.5  40675
   11852.4  474622  88960.5  40620
   11853.6  475197  88872.5  40552
   11854.5  474547  88596.5  40392
   11855.4  474514  88426.5  40271
   11856.4  474124  88137.5  40090
   11857.6  474148  87780.5  39825
   11858.5  474366  87515.5  39613
   11859.4  473448  87010.5  39254
   11860.6  473360  86393.5  38701
   11861.6  473011  85779.5  38141
   11862.5  473249  85102.5  37349
   11863.4  472020  84058.5  36165
   11864.6  471721  82395.5  33451
   11865.5  470936  80603.5  30326
   11866.5  471823  78640.5  26891
   11867.4  471466  75474.5  23236
   11868.6  471739  69003.5  19109
   11869.5  471066  61958.5  16588
   11870.5  470961  52315.5  13884
   11871.4  470036  41213.5  10991
   11872.6  469506  24929.5  6779
   11873.5  468981  16055.5  4450
   11874.4  469439  11646.5  3307
   11875.4  469184  10897.5  3189
   11876.6  469471  14012.5  4249
   11877.5  468981  17375.5  5361
   11878.4  468864  21113.5  6593
   11879.4  468325  24386.5  7680
   11880.6  468693  28158.5  8949.01
   11881.5  468130  29946.5  9552
   11882.4  467845  30939.5  9889
   11883.7  467207  31484.5  10060
   11884.6  466342  31574.5  10086
   11885.5  466060  31649.5  10118
   11886.4  465648  31735.5  10161
   11887.6  465979  31981.5  10252
   11888.6  466017  32235.5  10334
   11889.5  466696  32650.5  10460
   11890.4  465713  33061.5  10587
   11891.6  466113  33895.5  10841
   11892.6  465567  34468.5  11030
   11893.5  465446  35015.5  11232
   11894.4  464893  35497.5  11431
   11895.6  464833  36135.3  11725.8
   11896.9  464620  36614.3  11946.8
   11898.4  465009  37178.3  12143
   11899.7  464667  37734.4  12293.2
   11901.2  465743  38914.6  12640.5
   11903  465479  40374.7  13120.9
   11904.6  466488  41602.9  13537.4
   11906.4  466835  42893.1  13995.9
   11908.3  467966  44085.4  14415.6
   11910.1  468365  44919.6  14698.3
   11912.3  470619  45424  14834
   11914.2  471520  45151.3  14717.9
   11916.3  473699  44457.7  14507.8
   11918.8  473880  43096.1  14178.8
   11921  476867  42056.5  13953.9
   11923.4  478447  41048  13676.1
   11925.9  480642  40452.5  13509.3
   11928.4  483002  39985  13357.7
   11930.9  485024  39419.5  13143
   11933.7  488028  38783.1  12859.5
   11936.4  489915  38242.8  12603.1
   11939.2  493728  38185.4  12553.7
   11942.3  494005  37993.1  12526.4
   11945.1  498586  38287.8  12675.2
   11948.2  503380  38653.6  12848.1
   11951.3  505929  38981.3  12993
   11954.8  510275  39630.2  13271
   11957.9  513902  40243  13537.1
   11961.3  517450  40874.8  13763.3
   11964.7  522196  41517.8  13971.6
   11968.5  525518  42037.7  14199.9
   11971.9  529884  42808.7  14614.3
   11975.6  533828  43817.6  15115.8
   11979.4  538863  45013.7  15589.3
   11983.1  541978  45916.7  15918
   11987.2  544867  46609.8  16116.7
   11991.3  553578  47607.9  16358.5
   11995.3  556959  48146.1  16431.4
   11999.4  561987  48730.2  16562.3
   12003.5  568110  49324.4  16809.4
   12007.9  572446  49684.7  17014.5
   12012.3  575924  49916  17188.6
   12016.7  584033  50471.3  17483.9
   12021.1  589019  50787.6  17683.2
   12025.8  594878  51078  17916.7
   12030.5  601049  51224.4  18061.2
   12035.3  608317  51452.8  18225.7
   12040  613710  51670.3  18389.4
   12045  619237  52248.7  18666.1
   12050.1  625293  53098.2  19053.9
   12055.2  629810  53749.8  19268.8
   12060.2  638880  54681.4  19578.8
   12065.3  645342  55430  19910.8
   12070.7  651575  56155.6  20224.9
   12076.1  658004  56981.3  20486.1
   12081.5  665414  57869  20753.4
   12086.9  670984  58555.8  20989.7
   12092.6  678781  59493.5  21407.2
   12098.3  686464  60464.3  21918.7
   12104.1  693342  61370.2  22391.3
   12109.8  700210  62291  22875.9
   12115.9  708079  63277.9  23424.6
   12121.6  715520  64175.8  23927.5
   12127.7  722739  65134.8  24427.4
   12133.8  728923  66022.8  24863.3
   12140.2  738412  67129.8  25299.4
   12146.3  744365  67866.8  25557.5
   12152.8  752459  68650.9  25870.7
   12159.2  761269  69391  26186
   12165.6  768363  70093.2  26522.4
   12172.4  776930  70986.3  26965.8
   12178.9  785798  72134.5  27501.3
   12185.7  794476  73264.7  28013.9
   12192.5  800449  73957  28396.6
   12199.6  808016  74823.3  28870.3
   12206.4  816807  76017.6  29466.1
   12213.5  825631  77355  30160
   12220.7  833193  78278.4  30733
   12227.8  841826  79192.8  31282.1
   12235  850541  80393.3  31920.2
   12242.5  858644  81518.7  32512.4
   12250  867914  82798.3  33093.7
   12257.5  875534  83780.8  33525.1
   12265.1  882995  84846.3  34031.5
   12272.6  892340  86112  34639.1
   12280.5  900141  87302.6  35240.7
   12288.4  908912  88672.2  35945.3
   12296.3  916185  89814  36608.1
   12304.2  926282  91197.7  37359
   12312.1  932384  92073.4  37908.9
   12320.4  942452  93298.3  38621.9
   12328.7  953055  94701  39407.9
   12336.6  960247  95793.9  40076.1
   12345.2  969117  97067.8  40832.3
   12353.5  978154  98320.7  41536.6
   12362.2  985904  99543.7  42235
   12370.5  994749  100808  42970.4
   12379.2  1.00192e+06  102024  43666
   12387.9  1.01039e+06  103240  44347.6
   12396.9  1.02006e+06  104631  45110.3
   12405.6  1.02821e+06  105856  45814
   12414.7  1.03548e+06  107116  46569.9
   12423.8  1.04483e+06  108735  47507.8
   12432.8  1.05219e+06  110030  48323.8
   12441.9  1.0613e+06  111375  49167.9
   12451.4  1.06858e+06  112527  49970
   12460.5  1.07625e+06  113759  50770.3
   12470  1.08516e+06  115271  51724.6
   12479.5  1.09468e+06  116878  52725
   12489  1.10132e+06  118190  53567.4
   12498.9  1.10772e+06  119525  54428
   12508.4  1.11645e+06  120995  55352.6
   12518.3  1.12483e+06  122455  56279.3
   12528.2  1.13151e+06  123666  57103.1
   12538.1  1.14045e+06  125222  58088.9
   12548.1  1.14709e+06  126491  58945.9
   12558.4  1.15634e+06  128095  59993.9
   12568.7  1.1637e+06  129560  60986
   12578.7  1.1721e+06  131052  62018.1
   12589.1  1.17819e+06  132342  62961.4
   12599.4  1.18636e+06  133836  64023.7
   12610.2  1.19313e+06  135172  65027.1
   12620.6  1.20128e+06  136712  66131.6
   12631.3  1.20657e+06  138112  67185.1
   12642.1  1.21431e+06  139804  68376.8
   12652.9  1.22186e+06  141315  69457.5
   12663.8  1.22836e+06  142652  70481.3
   12674.6  1.23351e+06  143921  71446.2
   12685.8  1.24047e+06  145438  72598
   12696.7  1.24642e+06  146847  73666.1
   12708  1.25328e+06  148394  74844.2
   12719.3  1.26193e+06  150233  76192.4
   12730.6  1.26317e+06  151186  77096.6
   12741.9  1.26977e+06  152777  78337
   12753.6  1.27556e+06  154284  79567.4
   12764.9  1.28426e+06  156051  80920.9
   12776.7  1.28879e+06  157328  82075.4
   12788.4  1.29592e+06  158996  83419.1
   12800.2  1.30008e+06  160286  84562.8
   12812  1.30305e+06  161447  85638.6
   12824.2  1.3097e+06  163134  86990.5
   12836  1.31521e+06  164567  88247.4
   12848.2  1.32261e+06  166336  89705.5
   12860.5  1.32393e+06  167339  90742.5
   12872.4  1.33193e+06  169244  92281.7
   12885.1  1.3347e+06  170548  93528