File: data/As/as2o5_roomt_scan1.xdi
# XDI/1.0
# Column.1: energy eV
# Column.2: i0
# Column.3: itrans
# Column.4: irefer
# Beamline.name: SSRL 4-1
# Detector.I0: N2 15cm
# Detector.I1: N2 30cm
# Detector.I2: Ar 15cm
# Element.edge: K
# Element.symbol: As
# Mono.d_spacing: 3.13550
# Mono.name: Si(111)
# Mono.notes: unfocused, detuned 40%,counter clockwise at E=12000eV
# Sample.formula: As2O5
# Sample.name: As2O5 arsenic (V) oxide
# Sample.prep: powder, mixed 1:60 with B(OH)3 by wt
# Sample.reference: GaAs powder
# Sample.temperature: room temperature
# Scan.start_time: 1997-01-19 14:49:01
# ///
#    Note: mono d_spacing is nominal!
#     exafs to K15, GaAs in IR
#     320  E XMU XMUR I0
#-------------
#   energy   i0   itrans  irefer
   11650  172917  294631  342307
   11670  171674  293854  343250
   11690  171030  294143  345424
   11710  169837  293414  346421
   11730  169481  294127  349126
   11750  167856  292654  349214
   11770  167669  293619  352193
   11790  165943  291874  351898
   11810  165653  292541  354448
   11830  164561  291532  354679
   11850  163691  289754  352554
   11851.5  162794  287982  350147
   11853  163062  288232  350110
   11854.5  162784  287439  348656
   11856.1  162973  287388  347864
   11857.6  162470  285991  345273
   11859.1  162655  285572  343144
   11860.6  162674  284666  339575
   11862.1  162684  283423  333671
   11863.6  162566  281186  320676
   11865.2  162774  278582  295215
   11866.7  162443  272857  254923
   11868.2  163567  265276  215218
   11869.7  162004  244020  178884
   11871.2  161984  208102  149000
   11872.7  161786  163894  118626
   11874.2  161942  128795  98147
   11875.8  161281  125557  101416
   11877.3  162006  149468  123875
   11878.8  161807  174342  146772
   11880.3  161459  181584  154445
   11881.8  161637  181593  155376
   11883.3  161903  181025  155279
   11884.8  161258  180325  154573
   11886.4  161846  180433  154704
   11887.9  161944  179551  154118
   11889.4  161259  178728  153472
   11890.9  161567  181460  155705
   11892.4  161352  185209  158918
   11893.9  161597  189885  163462
   11895.5  161376  193279  167386
   11897  160970  195036  169723
   11898.5  161112  196846  171548
   11900  161075  198260  172472
   11902.6  161362  202259  175420
   11905.2  161142  206574  179444
   11908  161826  212306  184852
   11910.8  161284  214977  187063
   11913.6  161554  215673  187046
   11916.6  161570  213327  184936
   11919.6  162171  210382  183856
   11922.7  162027  206740  182123
   11925.9  162803  205703  181715
   11929.2  163464  205920  181868
   11932.5  164328  206467  181525
   11936  164550  204856  178715
   11939.4  165431  203335  176469
   11943  166199  202158  175771
   11946.7  167289  202994  177105
   11950.4  168657  205361  179719
   11954.2  168453  205370  180259
   11958.1  169432  206185  181807
   11962  170100  206794  182572
   11966  171458  209155  184387
   11970.2  172631  211908  187506
   11974.3  175159  216216  193444
   11978.6  175184  217534  196097
   11982.9  177006  221888  200318
   11987.3  178338  225643  203318
   11991.8  180764  229813  205709
   11996.4  182360  232376  206207
   12001  183046  233945  206402
   12005.8  184432  236571  209053
   12010.6  186916  240341  213226
   12015.4  188054  241926  215685
   12020.4  191139  245764  220175
   12025.4  193060  247982  223427
   12030.5  194380  249214  225613
   12035.7  196313  250993  228108
   12040.9  198798  253408  231139
   12046.3  200535  255342  233586
   12051.7  203214  258769  237390
   12057.2  205070  261293  239246
   12062.7  207311  264604  241722
   12068.4  209669  268087  245501
   12074.1  212285  271990  248965
   12079.9  214346  275298  251021
   12085.7  217886  280553  255060
   12091.7  220248  284474  258675
   12097.7  221894  287344  262616
   12103.8  224502  291287  267800
   12110  227456  295957  273406
   12116.2  231192  301801  280457
   12122.6  233212  305396  285499
   12129  236442  310385  291644
   12135.4  239223  314803  296367
   12142  241034  318033  299005
   12148.6  243810  322246  302410
   12155.4  248267  328728  308193
   12162.1  250531  332309  311692
   12169  254239  337680  317274
   12175.9  257023  341741  321916
   12183  260979  347289  327632
   12190  263798  351156  331786
   12197.2  267845  356937  338405
   12204.5  270195  360713  342987
   12211.8  274518  367385  350649
   12219.2  276529  370944  355860
   12226.7  281222  378052  364483
   12234.2  285961  385309  372774
   12241.9  288476  389621  378002
   12249.6  292143  395409  383968
   12257.3  294584  399626  387713
   12265.2  299128  406955  395024
   12273.1  302767  412995  401458
   12281.1  305766  418256  407123
   12289.2  310026  425255  415031
   12297.4  314609  432660  423728
   12305.6  317480  437630  430027
   12314  322358  445372  439041
   12322.4  326372  451928  447007
   12330.8  329480  457324  453910
   12339.4  333510  463960  462165
   12348  336369  468477  468944
   12356.7  342181  477849  478335
   12365.5  345058  482873  484466
   12374.3  349452  489989  493011
   12383.3  354128  497517  501483
   12392.3  357673  503656  508489
   12401.4  361385  510099  515994
   12410.5  365443  517055  524172
   12419.8  369220  523717  532316
   12429.1  374385  532363  542802
   12438.5  378883  540103  552530
   12447.9  381954  545955  560588
   12457.5  385863  553018  569765
   12467.1  393254  565186  584209
   12476.8  396057  570788  591860
   12486.6  399587  577368  600267
   12496.4  403926  585121  609821
   12506.4  407539  591854  618262
   12516.4  411977  599749  628155
   12526.4  417271  609033  639615
   12536.6  421745  617135  649703
   12546.8  424125  622098  656672
   12557.1  430089  632428  669363
   12567.5  434298  640129  679518
   12578  440497  650768  692928
   12588.5  441706  654166  698726
   12599.2  447688  664639  712373
   12609.9  450465  670536  721139
   12620.6  455899  680401  734138
   12631.5  460308  688780  745444
   12642.4  463947  696037  755512
   12653.4  469467  706274  768696
   12664.5  473130  713641  778867
   12675.6  477422  722092  790265
   12686.8  482086  731271  802623
   12698.1  484718  737363  811746
   12709.5  490385  748017  825972
   12715.2  494335  755070  835038