File: data/As/as2o5_10K_scan3.xdi
# XDI/1.0
# Column.1: energy eV
# Column.2: i0
# Column.3: itrans
# Column.4: irefer
# Beamline.name: SSRL 2-3
# Beamline.notes: vert slits = 0.6mm
# Detector.I0: N2 15cm
# Detector.I1: Ar 30cm
# Detector.I2: Ar 15cm
# Element.edge: K
# Element.symbol: As
# Mono.d_spacing: 3.13550
# Mono.name: Si(111)
# Mono.notes: unfocused, detuned 75%, clockwise at E=12000eV
# Sample.formula: As2O5
# Sample.name: As2O5 arsenic (V) oxide
# Sample.prep: powder on tape (5 layers)
# Sample.reference: GaAs powder
# Sample.temperature: 10K
# Scan.start_time: 1997-04-19 18:40:39
# ///
#    Note: mono d_spacing is nominal!
#     exafs to K16, GaAs in IR
#     413  E XMU XMUR I0
#-------------
#   energy   i0   itrans  irefer
   11634.9  543932  96585.5  39606
   11654.9  538292  96276.5  39949
   11675.1  533119  96060.5  40335
   11695  525778  95424.5  40528
   11714.9  521146  95279.5  40934
   11735  516458  95089.5  41332
   11755.1  510517  94667.5  41624
   11775  505636  94405.5  41964
   11794.9  500617  94051.5  42290
   11814.9  494605  93448.5  42475
   11835  490137  92837.5  42589
   11845.4  486968  92031.5  42356
   11846.6  487064  91989.5  42341
   11847.5  486724  91881.5  42291
   11848.4  486652  91796.5  42246
   11849.6  486001  91594.5  42155
   11850.6  485053  91352.5  42041
   11851.5  484669  91186.5  41959
   11852.4  485085  91159.5  41940
   11853.6  485656  91097.5  41873
   11854.5  485864  90994.5  41791
   11855.4  486145  90893.5  41716
   11856.4  485326  90547.5  41520
   11857.6  485817  90320.5  41304
   11858.5  484990  89896.5  41040
   11859.4  485001  89580.5  40779
   11860.6  484803  88957.5  40263
   11861.6  484357  88398.5  39762
   11862.5  484151  87748.5  39067
   11863.4  483611  86929.5  38138
   11864.6  481715  85195.5  35787
   11865.5  481690  83817.5  33196
   11866.5  482098  82068.5  29849
   11867.4  482511  79602.5  26043
   11868.6  482442  74176.5  21366
   11869.5  482280  68404.5  18707
   11870.5  481489  59829.5  16019
   11871.4  481240  49430.5  13230
   11872.6  480366  32135.5  8725
   11873.5  480420  21104.5  5815
   11874.4  479806  14193.5  3977
   11875.4  480085  11306.5  3247
   11876.6  479889  13026.5  3896
   11877.5  480298  16266.5  4980
   11878.4  479701  20099.5  6260
   11879.4  479830  23724.5  7464
   11880.6  479157  28164.5  8963.99
   11881.5  478961  30514.5  9769.99
   11882.4  478382  31878.5  10240
   11883.7  478197  32815.5  10546
   11884.6  477886  33036.5  10610
   11885.5  476456  33064.5  10617
   11886.4  476905  33205.5  10679
   11887.6  476880  33423.5  10765
   11888.6  477266  33678.5  10852
   11889.5  476753  33974.5  10951
   11890.4  476609  34415.5  11081
   11891.6  476203  35196.5  11321
   11892.6  476262  35843.5  11532
   11893.5  475792  36404.5  11727
   11894.4  475234  36935.5  11944
   11895.6  475023  37593.2  12242.8
   11896.9  475172  38147.3  12502.8
   11898.4  474720  38618.4  12702
   11899.7  475732  39210.4  12872.2
   11901.2  475177  40184.6  13148.5
   11903  475989  41769.7  13663.9
   11904.6  476242  42969.9  14072.4
   11906.4  477556  44398.1  14581.9
   11908.3  477576  45575.4  15011.6
   11910.1  479278  46647.7  15374.3
   11912.3  481255  47270  15549
   11914.2  482364  47117.3  15475.9
   11916.3  483736  46396.7  15234.8
   11918.8  484880  45126.1  14937.8
   11921  487207  43985.5  14676.9
   11923.4  489005  42887  14370.1
   11925.9  491093  42211.5  14183.3
   11928.4  493472  41731  14030.6
   11930.9  496349  41243.5  13840
   11933.7  499092  40562.1  13536.5
   11936.4  500432  39921.8  13236.1
   11939.2  504458  39817.4  13166.7
   11942.3  504467  39588.1  13130.4
   11945.1  509232  39913.8  13290.2
   11948.2  514939  40344.5  13478.1
   11951.3  516958  40621.3  13613
   11954.8  520585  41202.1  13874
   11957.9  525150  41913  14189.1
   11961.3  527969  42526.8  14408.3
   11964.7  532763  43197.7  14620.5
   11968.5  536403  43758.7  14862.9
   11971.9  540822  44489.6  15267.3
   11975.6  544552  45488.6  15778.8
   11979.4  550081  46770.7  16290.3
   11983.1  552674  47673.7  16636
   11987.2  555868  48406.8  16854.7
   11991.3  564483  49419.9  17102.5
   11995.3  569619  50119.1  17217.4
   11999.4  573544  50639.2  17326.3
   12003.5  579645  51252.5  17562.4
   12007.9  584991  51710.7  17809.5
   12012.3  587691  51891.9  17960.6
   12016.7  595911  52452.2  18276.9
   12021.1  602322  52895.6  18532.2
   12025.8  607901  53184.9  18757.7
   12030.5  614301  53343.4  18915.2
   12035.3  620394  53486.8  19049.7
   12040  626231  53716.2  19212.4
   12045  632756  54378.7  19536.1
   12050.1  637955  55184.2  19918.9
   12055.2  642525  55858.8  20152.8
   12060.2  651240  56799.4  20460.8
   12065.3  658478  57627  20815.8
   12070.7  664712  58358.6  21146.9
   12076.1  671508  59229.3  21419.1
   12081.5  678808  60125  21692.4
   12086.9  685845  60960.7  21976.7
   12092.6  691200  61691.5  22333.1
   12098.3  698509  62647.3  22838.7
   12104.1  705857  63615.1  23353.2
   12109.8  712350  64504  23831.9
   12115.9  719967  65484.9  24378.7
   12121.6  729038  66546.8  24948.5
   12127.7  735313  67452.8  25454.4
   12133.8  743202  68523.7  25954.3
   12140.2  750972  69488.7  26333.4
   12146.3  757900  70298.8  26631.5
   12152.8  765942  71107.9  26947.7
   12159.2  773192  71731  27216
   12165.6  781063  72487.1  27575.3
   12172.4  790086  73409.3  28028.8
   12178.9  798029  74514.5  28565.3
   12185.7  805861  75619.8  29074.9
   12192.5  812881  76438  29514.6
   12199.6  820330  77296.3  30005.3
   12206.4  829442  78500.6  30607.1
   12213.5  837387  79817  31289
   12220.7  845672  80828.4  31909
   12227.8  854313  81732.8  32474.1
   12235  861709  82829.3  33068.2
   12242.5  869370  83949.7  33679.4
   12250  880216  85396.2  34341.7
   12257.5  888304  86444.8  34790.1
   12265.1  897135  87626.3  35353.5
   12272.6  905134  88782.9  35917.1
   12280.5  913510  90023.6  36554.7
   12288.4  923252  91545.3  37314.4
   12296.3  931619  92818  38048.1
   12304.2  939381  94005.7  38719.9
   12312.1  946613  95005.4  39337.9
   12320.4  956345  96209.2  40037.9
   12328.7  965340  97472.1  40787.9
   12336.6  974433  98744.9  41546.1
   12345.2  981407  99853.8  42228.3
   12353.5  989868  101092  42930.6
   12362.2  999498  102530  43733
   12370.5  1.00742e+06  103750  44456.4
   12379.2  1.01694e+06  105222  45284
   12387.9  1.02633e+06  106545  46014.6
   12396.9  1.03595e+06  107927  46789.3
   12405.6  1.04468e+06  109244  47542.1
   12414.7  1.05399e+06  110711  48394.9
   12423.8  1.0624e+06  112275  49313.8
   12432.8  1.07099e+06  113748  50222.8
   12441.9  1.07856e+06  114961  51032.9
   12451.4  1.08604e+06  116133  51846.1
   12460.5  1.09655e+06  117671  52820.3
   12470  1.10454e+06  119103  53746.6
   12479.5  1.11156e+06  120514  54668
   12489  1.12059e+06  122124  55652.4
   12498.9  1.12865e+06  123691  56638
   12508.4  1.1348e+06  124909  57446.6
   12518.3  1.14286e+06  126367  58380.3
   12528.2  1.15055e+06  127687  59299.1
   12538.1  1.16054e+06  129335  60343
   12548.1  1.16691e+06  130640  61245.9
   12558.4  1.17434e+06  132064  62193.9
   12568.7  1.18392e+06  133823  63372
   12578.7  1.18992e+06  135054  64280.1
   12589.1  1.1951e+06  136299  65213.4
   12599.4  1.2041e+06  137862  66338.7
   12610.2  1.20941e+06  139049  67300.1
   12620.6  1.2172e+06  140582  68419.6
   12631.3  1.22625e+06  142395  69668.1
   12642.1  1.22981e+06  143651  70646.8
   12652.9  1.23775e+06  145224  71789.5
   12663.8  1.24589e+06  146775  72936.3
   12674.6  1.25287e+06  148223  74005.2
   12685.8  1.25714e+06  149450  75039.1
   12696.7  1.26519e+06  151139  76278.1
   12708  1.27084e+06  152556  77405.2
   12719.3  1.27683e+06  154091  78615.4
   12730.6  1.28275e+06  155632  79837.7
   12741.9  1.2893e+06  157248  81114
   12753.6  1.29605e+06  158921  82449.4
   12764.9  1.30479e+06  160696  83850.9
   12776.7  1.30798e+06  161839  84914.4
   12788.4  1.31322e+06  163297  86177.1
   12800.2  1.32003e+06  164928  87501.8
   12812  1.32579e+06  166427  88789.6
   12824.2  1.33002e+06  167869  90061.5
   12836  1.33707e+06  169557  91443.4
   12848.2  1.3395e+06  170653  92573.5
   12860.5  1.34569e+06  172261  93936.6
   12872.4  1.35148e+06  173904  95343.8
   12885.1  1.35419e+06  175245  96632