File: data/As/as2s3_100K_scan2.xdi
# XDI/1.0
# Column.1: energy eV
# Column.2: i0
# Column.3: itrans
# Column.4: irefer
# Beamline.name: SSRL 2-3
# Beamline.notes: vert slits = 0.6mm
# Detector.I0: N2 15cm
# Detector.I1: Ar 30cm
# Detector.I2: Ar 15cm
# Element.edge: K
# Element.symbol: As
# Mono.d_spacing: 3.13550
# Mono.name: Si(111)
# Mono.notes: unfocused, detuned 75%, clockwise at E=12000eV
# Sample.formula: As2S3
# Sample.name: As2S3 arsenious sulfide (orpiment)
# Sample.prep: powder on tape (5 layers)
# Sample.reference: GaAs powder
# Sample.temperature: 100K
# Scan.start_time: 1997-04-19 22:41:20
# ///
#    Note: mono d_spacing is nominal!
#     exafs to K16, GaAs in IR
#     413  E XMU XMUR I0
#-------------
#   energy   i0   itrans  irefer
   11634.9  518893  92592.5  37762
   11654.9  513109  92241.5  38067
   11675.1  508326  92055.5  38437
   11695  502367  91630.5  38708
   11714.9  497389  91394.5  39063
   11735  492279  91136.5  39392
   11755.1  486941  90777.5  39700
   11775  482332  90533.5  40053
   11794.9  477434  90216.5  40356
   11814.9  471925  89701.5  40549
   11835  467263  89157.5  40692
   11845.4  464800  88516.5  40518
   11846.6  464593  88421.5  40475
   11847.5  464289  88328.5  40436
   11848.4  463655  88152.5  40358
   11849.6  462931  87906.5  40243
   11850.6  461949  87669.5  40127
   11851.5  462317  87619.5  40081
   11852.4  462459  87529.5  40029
   11853.6  462791  87392.5  39958
   11854.5  462412  87103.5  39778
   11855.4  462635  86920.5  39649
   11856.4  462252  86546.5  39421
   11857.6  462029  85958.5  39066
   11858.5  462094  85460.5  38732
   11859.4  461439  84647.5  38239
   11860.6  461201  83220.5  37315
   11861.6  460846  81700.5  36353
   11862.5  460397  79308.5  34829
   11863.4  459668  75851.5  32671
   11864.6  459394  67153.5  27532
   11865.5  459270  56996.5  22070
   11866.5  459427  44798.5  16118
   11867.4  459423  32633.5  10600
   11868.6  459460  24575.5  6922
   11869.5  459283  25923.5  6953
   11870.5  458729  31573.5  8453
   11871.4  458447  38139.5  10324
   11872.6  457134  45120.5  12471
   11873.5  457446  47286.5  13273
   11874.4  457645  47336.5  13528
   11875.4  457746  46465.5  13607
   11876.6  457350  45549.5  13803
   11877.5  457573  45534.5  14076
   11878.4  457068  45809.5  14362
   11879.4  457045  46216.5  14623
   11880.6  456263  46660.5  14899
   11881.5  455926  46958.5  15045
   11882.4  456256  47249.5  15160
   11883.7  455774  47559.5  15245
   11884.6  454542  47642.5  15266
   11885.5  454623  47845.5  15346
   11886.4  454700  48030.5  15429
   11887.6  454941  48333.5  15547
   11888.6  455112  48569.5  15615
   11889.5  454655  48790.5  15679
   11890.4  454125  48985.5  15732
   11891.6  454320  49377.5  15842
   11892.6  453871  49614.5  15932
   11893.5  453716  49867.5  16067
   11894.4  453483  50120.5  16209
   11895.6  453392  50469.2  16445.8
   11896.9  453034  50770.3  16625.8
   11898.4  453328  51174.4  16763
   11899.7  453234  51394.5  16792.2
   11901.2  453200  51620.6  16827.5
   11903  454309  51884.7  16915.9
   11904.6  454829  51957.9  16975.4
   11906.4  455294  51918.1  17009.9
   11908.3  456835  51886.4  17022.6
   11910.1  457483  51617.6  16938.3
   11912.3  459051  51277  16789
   11914.2  459648  50852.3  16624.9
   11916.3  462033  50524.7  16540.8
   11918.8  462724  50023.1  16519.8
   11921  465123  49882.5  16603.9
   11923.4  466245  49693  16611.1
   11925.9  469050  49843.5  16698.3
   11928.4  470559  50011  16749.6
   11930.9  473263  50389.5  16840
   11933.7  476099  50953.1  16935.5
   11936.4  478433  51636.8  17056.1
   11939.2  481279  52440.4  17291.7
   11942.3  482210  53167.1  17596.4
   11945.1  486970  54272.8  18032.2
   11948.2  491115  55279.6  18425.1
   11951.3  493859  56030.3  18735
   11954.8  496804  56642.1  19030
   11957.9  501990  57358  19359.1
   11961.3  504636  57645.8  19472.3
   11964.7  509079  58033.7  19590.6
   11968.5  513355  58336.7  19775.9
   11971.9  517272  58561.6  20067.3
   11975.6  520707  58692.6  20310.8
   11979.4  525748  58998.6  20497.3
   11983.1  529644  59199.7  20595
   11987.2  532157  59252.8  20561.7
   11991.3  539151  59916.9  20663.5
   11995.3  544085  60464.1  20704.4
   11999.4  549171  61188.2  20861.3
   12003.5  553684  62025.5  21205.4
   12007.9  558393  63050.7  21656.5
   12012.3  562366  64087.9  22133.6
   12016.7  570471  65629.3  22796.9
   12021.1  575557  66719.6  23313.2
   12025.8  580874  67723.9  23817.6
   12030.5  586447  68542.4  24242.2
   12035.3  593566  69442.8  24671.7
   12040  598767  70076.2  25015.4
   12045  605442  70782.7  25375.1
   12050.1  610481  71283.2  25664.9
   12055.2  615213  71734.8  25803.8
   12060.2  623095  72590.4  26073.8
   12065.3  630209  73373  26442.8
   12070.7  637151  74183.6  26804.9
   12076.1  642858  74950.3  27020.1
   12081.5  648802  75818  27268.4
   12086.9  655911  76919.7  27666.7
   12092.6  663794  78186.5  28244.2
   12098.3  670588  79401.3  28883.7
   12104.1  677668  80688.2  29551.3
   12109.8  684459  81928  30194.9
   12115.9  692769  83369.9  30972.7
   12121.6  699460  84544.8  31629.5
   12127.7  706319  85675.8  32241.4
   12133.8  714344  86881.8  32808.3
   12140.2  721951  87975.8  33238.4
   12146.3  729183  88913.8  33585.5
   12152.8  736055  89831.9  33952.7
   12159.2  744018  90840  34388
   12165.6  750546  91741.1  34822.4
   12172.4  758966  92888.4  35396.8
   12178.9  767868  94216.6  36037.3
   12185.7  775520  95450.8  36605.9
   12192.5  783156  96754  37263.6
   12199.6  789733  98006.3  37938.3
   12206.4  798384  99517.6  38701.1
   12213.5  807586  101133  39562.1
   12220.7  814631  102480  40356
   12227.8  823084  103993  41225.1
   12235  830705  105347  41955.2
   12242.5  839803  106893  42781.4
   12250  847138  108185  43409.7
   12257.5  852884  109252  43869.1
   12265.1  863291  110878  44618.6
   12272.6  872047  112275  45319.1
   12280.5  879395  113493  45959.7
   12288.4  889425  115083  46797.4
   12296.3  896883  116373  47583.1
   12304.2  905335  117865  48448.9
   12312.1  913898  119366  49305.9
   12320.4  921781  120847  50172.9
   12328.7  929074  122345  51079.9
   12336.6  936864  123862  51982.1
   12345.2  946586  125712  53042.3
   12353.5  954526  127318  53948.6
   12362.2  961718  128820  54819
   12370.5  971012  130580  55834.4
   12379.2  979646  132251  56774
   12387.9  986724  133679  57599.6
   12396.9  995944  135396  58561.3
   12405.6  1.00359e+06  136880  59437.1
   12414.7  1.01243e+06  138535  60412.9
   12423.8  1.02124e+06  140204  61441.8
   12432.8  1.02784e+06  141588  62347.8
   12441.9  1.03693e+06  143373  63485.9
   12451.4  1.04549e+06  145115  64634.1
   12460.5  1.05289e+06  146739  65710.3
   12470  1.06266e+06  148716  66952.6
   12479.5  1.06818e+06  150137  67957
   12489  1.07777e+06  152140  69196.5
   12498.9  1.08398e+06  153654  70194
   12508.4  1.0919e+06  155472  71350.6
   12518.3  1.09876e+06  157101  72427.4
   12528.2  1.10554e+06  158735  73532.1
   12538.1  1.11596e+06  160868  74874
   12548.1  1.12361e+06  162591  76035.9
   12558.4  1.12793e+06  163878  77015.9
   12568.7  1.13527e+06  165593  78236
   12578.7  1.14489e+06  167638  79595.2
   12589.1  1.15107e+06  169213  80789.4
   12599.4  1.15837e+06  170983  82105.7
   12610.2  1.16479e+06  172656  83379.2
   12620.6  1.17304e+06  174623  84794.6
   12631.3  1.17941e+06  176293  86067.1
   12642.1  1.18568e+06  178018  87372.8
   12652.9  1.19131e+06  179707  88654.5
   12663.8  1.19917e+06  181693  90089.3
   12674.6  1.20341e+06  183125  91273.1
   12685.8  1.20941e+06  184849  92606
   12696.7  1.21851e+06  187039  94191.1
   12708  1.2221e+06  188410  95384.2
   12719.3  1.23039e+06  190478  96986.4
   12730.6  1.23883e+06  192591  98577.6
   12741.9  1.24468e+06  194298  100034
   12753.6  1.25015e+06  195990  101456
   12764.9  1.25672e+06  197864  103008
   12776.7  1.26334e+06  199772  104581
   12788.4  1.26881e+06  201540  106133
   12800.2  1.27453e+06  203368  107659
   12812  1.27654e+06  204575  108947
   12824.2  1.28016e+06  206138  110391
   12836  1.28669e+06  208105  112027
   12848.2  1.29522e+06  210437  113897
   12860.5  1.30006e+06  212255  115491
   12872.4  1.3025e+06  213588  116886
   12885.1  1.31026e+06  215860  118806