File: data/As/as2s3_10K_scan3.xdi
# XDI/1.0
# Column.1: energy eV
# Column.2: i0
# Column.3: itrans
# Column.4: irefer
# Beamline.name: SSRL 2-3
# Beamline.notes: vert slits = 0.6mm
# Detector.I0: N2 15cm
# Detector.I1: Ar 30cm
# Detector.I2: Ar 15cm
# Element.edge: K
# Element.symbol: As
# Mono.d_spacing: 3.13550
# Mono.name: Si(111)
# Mono.notes: unfocused, detuned 75%, clockwise at E=12000eV
# Sample.formula: As2S3
# Sample.name: As2S3 arsenious sulfide (orpiment)
# Sample.prep: powder on tape (5 layers)
# Sample.reference: GaAs powder
# Sample.temperature: 10K
# Scan.start_time: 1997-04-19 16:23:01
# ///
#    Note: mono d_spacing is nominal!
#     exafs to K16, GaAs in IR
#     413  E XMU XMUR I0
#-------------
#   energy   i0   itrans  irefer
   11634.9  553511  88214.5  36276
   11654.9  548612  88148.5  36683
   11675.1  543773  88079.5  37092
   11695  536227  87526.5  37274
   11714.9  532276  87565.5  37733
   11735  527960  87529.5  38160
   11755.1  521620  87119.5  38422
   11775  516199  86870.5  38726
   11794.9  511671  86686.5  39088
   11814.9  505185  86124.5  39266
   11835  500924  85673.5  39420
   11845.4  497258  84809.5  39136
   11846.6  497065  84695.5  39097
   11847.5  498033  84803.5  39150
   11848.4  497224  84598.5  39050
   11849.6  497082  84477.5  39001
   11850.6  495804  84132.5  38836
   11851.5  494768  83863.5  38712
   11852.4  493502  83507.5  38538
   11853.6  494290  83420.5  38476
   11854.5  493014  82996.5  38260
   11855.4  494584  83018.5  38251
   11856.4  492859  82423.5  37944
   11857.6  493149  81970.5  37676
   11858.5  492011  81305.5  37298
   11859.4  494225  81082.5  37130
   11860.6  492292  79634.5  36313
   11861.6  492837  78605.5  35679
   11862.5  491308  76733.5  34606
   11863.4  492201  74686.5  33385
   11864.6  491058  69329.5  30310
   11865.5  490183  62884.5  26739
   11866.5  489667  54307.5  22246
   11867.4  489201  41920.5  16240
   11868.6  489453  25262.5  8811
   11869.5  489076  16993.5  5313
   11870.5  490233  14281.5  3988
   11871.4  488028  16889.5  4540
   11872.6  488301  24890.5  6762
   11873.5  486287  30505.5  8409
   11874.4  487476  33885.5  9475.99
   11875.4  486773  35004.5  9962
   11876.6  487399  34134.5  9997
   11877.5  486609  33220.5  9981
   11878.4  487456  32903.5  10125
   11879.4  486531  32972.5  10317
   11880.6  487549  33605.5  10677
   11881.5  486819  33968.5  10876
   11882.4  487305  34350.5  11051
   11883.7  485640  34667.5  11187
   11884.6  486210  34993.5  11291
   11885.5  485343  35178.5  11345
   11886.4  484694  35345.5  11401
   11887.6  484679  35584.5  11494
   11888.6  485159  35816.5  11588
   11889.5  486893  36180.5  11709
   11890.4  485347  36313.5  11749
   11891.6  486337  36761.5  11876
   11892.6  484459  36921.5  11917
   11893.5  485538  37300.5  12043
   11894.4  484566  37522.5  12145
   11895.6  484881  37959.3  12357.8
   11896.9  484216  38293.3  12547.8
   11898.4  485501  38849.3  12802
   11899.7  484975  39120.4  12892.2
   11901.2  486125  39518.6  12991.5
   11903  486162  39759.7  13040.9
   11904.6  487150  39917.9  13105.4
   11906.4  488015  39950.1  13152.9
   11908.3  487987  39776.4  13124.6
   11910.1  489853  39633.6  13091.3
   11912.3  490762  39203  12938
   11914.2  493622  38917.3  12817.9
   11916.3  494269  38298.7  12602.8
   11918.8  495765  37722.1  12482.8
   11921  496658  37297.5  12443.9
   11923.4  499522  37109  12458.1
   11925.9  501114  36995.5  12450.3
   11928.4  502969  37063  12487.7
   11930.9  505997  37323.6  12563
   11933.7  506362  37540.1  12575.5
   11936.4  508850  38106.8  12684.1
   11939.2  512047  38833.4  12880.7
   11942.3  512250  39491.1  13123.4
   11945.1  517136  40455.8  13499.2
   11948.2  522208  41482.5  13889.1
   11951.3  524250  42159.3  14171
   11954.8  528880  42881.1  14465
   11957.9  532497  43327  14692.1
   11961.3  535530  43579.8  14816.3
   11964.7  541180  43938.7  14916.5
   11968.5  544223  43988.7  14963.9
   11971.9  549918  44202.6  15175.3
   11975.6  554214  44249.6  15377.8
   11979.4  561258  44530.7  15549.3
   11983.1  566568  44652.7  15620
   11987.2  569545  44619.8  15593.7
   11991.3  576301  44944.9  15616.5
   11995.3  583101  45401  15658.4
   11999.4  589691  46019.2  15785.3
   12003.5  593868  46619.4  16006.4
   12007.9  599854  47573.7  16420.4
   12012.3  602694  48392.9  16785.6
   12016.7  612037  49790.3  17374.9
   12021.1  618121  50859.6  17849.2
   12025.8  624837  51864.9  18319.7
   12030.5  631652  52618.4  18695.2
   12035.3  638504  53269.8  19020.7
   12040  645268  53827.2  19307.4
   12045  651352  54248.7  19534.1
   12050.1  657333  54603.2  19758.9
   12055.2  663462  54963.8  19891.8
   12060.2  669690  55371.4  19994.8
   12065.3  679706  56098  20307.8
   12070.7  687123  56678.6  20589.9
   12076.1  693921  57272.3  20785.1
   12081.5  700338  57951  20969.4
   12086.9  706610  58694.7  21212.7
   12092.6  715379  59755.5  21660.2
   12098.3  719585  60490.3  22094.7
   12104.1  726203  61478.2  22600.3
   12109.8  734119  62589  23149.9
   12115.9  742047  63735.9  23758.6
   12121.6  750231  64822.8  24344.5
   12127.7  756517  65668.8  24825.4
   12133.8  767532  66847.8  25368.3
   12140.2  773273  67502.8  25655.4
   12146.3  782425  68363.8  25954.5
   12152.8  791360  69141.9  26261.7
   12159.2  799788  69876  26570
   12165.6  806502  70510.1  26892.4
   12172.4  815612  71422.3  27342.8
   12178.9  824971  72406.5  27829.3
   12185.7  832187  73308.7  28248.9
   12192.5  840213  74375  28767.6
   12199.6  850040  75650.3  29416.3
   12206.4  857708  76771.6  29982.1
   12213.5  865481  77931  30617
   12220.7  873790  79106.4  31282
   12227.8  883651  80434.8  32024.1
   12235  891952  81588.3  32646.2
   12242.5  899582  82661.7  33233.4
   12250  908536  83815.2  33786.7
   12257.5  918079  84987.8  34280.1
   12265.1  926080  85998.3  34770.5
   12272.6  934799  87041  35299.1
   12280.5  944636  88205.6  35879.7
   12288.4  952234  89146.3  36408.4
   12296.3  960620  90203.9  37043.1
   12304.2  969596  91378.7  37730
   12312.1  978214  92549.4  38397.9
   12320.4  986122  93726.3  39083.9
   12328.7  993641  94921  39810.9
   12336.6  1.00118e+06  96129.9  40526.1
   12345.2  1.01005e+06  97509.8  41333.3
   12353.5  1.01955e+06  98948.7  42112.6
   12362.2  1.02883e+06  100375  42929
   12370.5  1.03227e+06  101220  43479.5
   12379.2  1.0383e+06  102273  44124
   12387.9  1.04191e+06  103066  44623.6
   12396.9  1.04618e+06  103899  45156.3
   12405.6  1.05394e+06  105064  45836
   12414.7  1.06144e+06  106190  46523.9
   12423.8  1.06649e+06  107090  47130.8
   12432.8  1.07674e+06  108556  48020.8
   12441.9  1.08598e+06  109937  48886.9
   12451.4  1.09385e+06  111260  49776
   12460.5  1.10125e+06  112530  50622.3
   12470  1.11009e+06  114009  51554.6
   12479.5  1.11907e+06  115506  52518
   12489  1.12589e+06  116829  53369.5
   12498.9  1.1345e+06  118314  54296
   12508.4  1.14298e+06  119802  55211.6
   12518.3  1.15197e+06  121358  56205.3
   12528.2  1.1595e+06  122742  57120.1
   12538.1  1.16609e+06  124023  57980
   12548.1  1.17494e+06  125542  58978.9
   12558.4  1.18144e+06  126822  59878.9
   12568.7  1.18909e+06  128216  60854
   12578.7  1.19829e+06  129758  61897.1
   12589.1  1.20559e+06  131131  62903.4
   12599.4  1.20886e+06  132096  63717.7
   12610.2  1.21585e+06  133503  64764.1
   12620.6  1.22134e+06  134761  65728.6
   12631.3  1.22899e+06  136304  66853.1
   12642.1  1.23278e+06  137470  67786.8
   12652.9  1.2383e+06  138814  68809.5
   12663.8  1.24396e+06  140207  69839.3
   12674.6  1.25083e+06  141739  70957.2
   12685.8  1.25517e+06  142946  71929.1
   12696.7  1.26307e+06  144552  73119.1
   12708  1.26995e+06  146088  74284.2
   12719.3  1.27467e+06  147355  75345.4
   12730.6  1.28298e+06  149020  76598.6
   12741.9  1.2941e+06  151042  78083.9
   12753.6  1.30118e+06  152637  79360.4
   12764.9  1.3072e+06  154078  80536.8
   12776.7  1.3121e+06  155450  81737.4
   12788.4  1.31861e+06  157036  83032.1
   12800.2  1.32238e+06  158356  84197.8
   12812  1.32891e+06  159952  85537.6
   12824.2  1.33227e+06  161240  86704.4
   12836  1.34163e+06  163236  88236.4
   12848.2  1.34813e+06  164890  89612.5
   12860.5  1.35576e+06  166711  91107.6
   12872.4  1.35823e+06  167891  92212.8
   12885.1  1.37022e+06  170282  94106