File: data/As/as2s3_10K_scan2.xdi
# XDI/1.0
# Column.1: energy eV
# Column.2: i0
# Column.3: itrans
# Column.4: irefer
# Beamline.name: SSRL 2-3
# Beamline.notes: vert slits = 0.6mm
# Detector.I0: N2 15cm
# Detector.I1: Ar 30cm
# Detector.I2: Ar 15cm
# Element.edge: K
# Element.symbol: As
# Mono.d_spacing: 3.13550
# Mono.name: Si(111)
# Mono.notes: unfocused, detuned 75%, clockwise at E=12000eV
# Sample.formula: As2S3
# Sample.name: As2S3 arsenious sulfide (orpiment)
# Sample.prep: powder on tape (5 layers)
# Sample.reference: GaAs powder
# Sample.temperature: 10K
# Scan.start_time: 1997-04-19 16:23:01
# ///
#    Note: mono d_spacing is nominal!
#     exafs to K16, GaAs in IR
#     413  E XMU XMUR I0
#-------------
#   energy   i0   itrans  irefer
   11634.9  567867  90474.5  37208
   11654.9  562538  90351.5  37598
   11675.1  556485  90102.5  37939
   11695  549779  89730.5  38235
   11714.9  545454  89713.5  38668
   11735  540170  89535.5  39040
   11755.1  534127  89216.5  39334
   11775  529336  89037.5  39704
   11794.9  523269  88641.5  39977
   11814.9  517734  88245.5  40225
   11835  512600  87659.5  40348
   11845.4  509083  86811.5  40079
   11846.6  509068  86745.5  40047
   11847.5  508303  86577.5  39974
   11848.4  508348  86487.5  39934
   11849.6  507610  86259.5  39829
   11850.6  507070  86062.5  39725
   11851.5  506275  85817.5  39614
   11852.4  505752  85617.5  39522
   11853.6  505928  85407.5  39400
   11854.5  506088  85226.5  39302
   11855.4  505767  84952.5  39157
   11856.4  505785  84645.5  38985
   11857.6  505606  84111.5  38662
   11858.5  505140  83543.5  38353
   11859.4  505282  82971.5  38008
   11860.6  504353  81705.5  37266
   11861.6  504676  80656.5  36650
   11862.5  503766  78882.5  35611
   11863.4  504383  76823.5  34387
   11864.6  503230  71671.5  31415
   11865.5  502820  65316.5  27873
   11866.5  501864  56649.5  23306
   11867.4  502307  44254.5  17245
   11868.6  502123  26932.5  9469
   11869.5  502321  18050.5  5713
   11870.5  501795  14578.5  4096
   11871.4  501281  16911.5  4548
   11872.6  500590  24973.5  6768
   11873.5  499766  30909.5  8515
   11874.4  499750  34562.5  9654
   11875.4  499807  35939.5  10210
   11876.6  500053  35096.5  10254
   11877.5  499720  34149.5  10237
   11878.4  500101  33755.5  10365
   11879.4  499258  33807.5  10568
   11880.6  499710  34391.5  10916
   11881.5  498609  34754.5  11123
   11882.4  498931  35149.5  11307
   11883.7  498150  35531.5  11465
   11884.6  497683  35802.5  11548
   11885.5  496800  35984.5  11601
   11886.4  496623  36179.5  11662
   11887.6  496331  36431.5  11762
   11888.6  496521  36636.5  11848
   11889.5  496851  36887.5  11932
   11890.4  496240  37093.5  11998
   11891.6  496201  37479.5  12114
   11892.6  496247  37798.5  12208
   11893.5  496163  38081.5  12300
   11894.4  495318  38332.5  12404
   11895.6  495494  38763.2  12607.8
   11896.9  495261  39130.3  12825.8
   11898.4  495365  39609.4  13051
   11899.7  495108  39910.4  13159.2
   11901.2  496170  40327.6  13258.5
   11903  495971  40564.7  13307.9
   11904.6  496666  40697.9  13363.4
   11906.4  497206  40710.1  13403.9
   11908.3  498483  40632.4  13406.6
   11910.1  499780  40456.6  13369.3
   11912.3  500992  40034  13212
   11914.2  502565  39645.3  13059.9
   11916.3  503687  39070.7  12859.8
   11918.8  505232  38476.1  12726.8
   11921  507673  38136.5  12719.9
   11923.4  510250  37911  12730.1
   11925.9  511746  37782.5  12720.3
   11928.4  514316  37903  12779.6
   11930.9  517621  38180.6  12862
   11933.7  519081  38472.1  12899.5
   11936.4  522348  39104.8  13023.1
   11939.2  525440  39827.4  13212.7
   11942.3  526974  40595.1  13490.4
   11945.1  529809  41431.8  13826.2
   11948.2  536141  42571.5  14251.1
   11951.3  539205  43335.3  14560
   11954.8  543516  44057.2  14863
   11957.9  547481  44542  15110.1
   11961.3  550885  44837.8  15245.3
   11964.7  554759  45050.7  15304.5
   11968.5  560013  45265.7  15404.9
   11971.9  563932  45334.7  15564.3
   11975.6  568441  45400.6  15775.8
   11979.4  573269  45474.7  15888.3
   11983.1  578582  45593.7  15949
   11987.2  580637  45488.8  15908.7
   11991.3  587340  45808.9  15929.5
   11995.3  592389  46138.1  15922.4
   11999.4  597990  46669.2  16025.3
   12003.5  603069  47349.5  16269.4
   12007.9  609043  48305.7  16683.4
   12012.3  611755  49134.9  17050.6
   12016.7  619476  50413.3  17608.9
   12021.1  626235  51551.6  18103.2
   12025.8  631672  52446  18550.7
   12030.5  638229  53177.4  18911.2
   12035.3  644189  53757.8  19205.7
   12040  650945  54311.2  19492.4
   12045  657088  54724.7  19723.1
   12050.1  662549  55048.2  19924.9
   12055.2  668574  55401.8  20073.8
   12060.2  675757  55871.4  20191.8
   12065.3  684663  56515  20481.8
   12070.7  691215  57009.7  20721.9
   12076.1  698454  57646.3  20934.1
   12081.5  705166  58365  21138.4
   12086.9  711483  59110.7  21392.7
   12092.6  720830  60206.5  21845.2
   12098.3  726947  61121.3  22331.7
   12104.1  734136  62151.2  22873.3
   12109.8  740388  63143  23380.9
   12115.9  748917  64331.9  24002.6
   12121.6  758847  65573.8  24638.5
   12127.7  763328  66262.8  25059.4
   12133.8  774465  67446.8  25614.3
   12140.2  781920  68260.7  25956.4
   12146.3  789827  68996.8  26214.5
   12152.8  798494  69778.9  26518.7
   12159.2  805455  70388  26790
   12165.6  811262  70921.2  27058.4
   12172.4  818286  71655.3  27440.8
   12178.9  826304  72521.5  27886.3
   12185.7  835277  73581.8  28368.9
   12192.5  843796  74679  28915.6
   12199.6  854271  76029.3  29582.3
   12206.4  863759  77313.6  30221.1
   12213.5  873527  78650  30919
   12220.7  881893  79871.4  31617
   12227.8  890027  81040.8  32289.1
   12235  896405  82002.2  32828.2
   12242.5  903749  83045.7  33405.4
   12250  914596  84386.2  34031.7
   12257.5  922685  85427.8  34490.1
   12265.1  930587  86428.3  34957.5
   12272.6  941918  87728.9  35597.1
   12280.5  949583  88680.6  36092.7
   12288.4  959756  89869.2  36728.3
   12296.3  968638  90987  37377.1
   12304.2  974965  91901.7  37961.9
   12312.1  984397  93163.5  38675.9
   12320.4  993042  94409.3  39411.9
   12328.7  1.00166e+06  95708  40153.9
   12336.6  1.01215e+06  97198.9  41000.1
   12345.2  1.02148e+06  98617.8  41830.3
   12353.5  1.03306e+06  100272  42715.6
   12362.2  1.04059e+06  101543  43444
   12370.5  1.05024e+06  102980  44252.4
   12379.2  1.05826e+06  104244  44994
   12387.9  1.06674e+06  105523  45702.6
   12396.9  1.07531e+06  106793  46425.3
   12405.6  1.08495e+06  108155  47218.1
   12414.7  1.09275e+06  109343  47933.9
   12423.8  1.10155e+06  110609  48694.8
   12432.8  1.10739e+06  111658  49418.8
   12441.9  1.11711e+06  113107  50309.9
   12451.4  1.12697e+06  114622  51287
   12460.5  1.13318e+06  115784  52087.3
   12470  1.14428e+06  117502  53153.6
   12479.5  1.14985e+06  118683  53968
   12489  1.15951e+06  120279  54964.5
   12498.9  1.1644e+06  121443  55739
   12508.4  1.17598e+06  123251  56810.6
   12518.3  1.18298e+06  124616  57726.3
   12528.2  1.19057e+06  126022  58659.1
   12538.1  1.19923e+06  127550  59653
   12548.1  1.20575e+06  128834  60531.9
   12558.4  1.21162e+06  130046  61417.9
   12568.7  1.21886e+06  131381  62377
   12578.7  1.22779e+06  132934  63433.2
   12589.1  1.23575e+06  134410  64470.4
   12599.4  1.24272e+06  135770  65496.7
   12610.2  1.24932e+06  137143  66562.1
   12620.6  1.25601e+06  138582  67606.6
   12631.3  1.26441e+06  140247  68797.1
   12642.1  1.27072e+06  141664  69876.8
   12652.9  1.27783e+06  143240  71000.5
   12663.8  1.28236e+06  144511  72003.3
   12674.6  1.29151e+06  146318  73269.1
   12685.8  1.295e+06  147491  74234.1
   12696.7  1.30457e+06  149304  75541.1
   12708  1.30833e+06  150520  76558.2
   12719.3  1.31608e+06  152148  77822.4
   12730.6  1.32028e+06  153369  78868.6
   12741.9  1.32695e+06  154885  80093.9
   12753.6  1.33123e+06  156161  81206.4
   12764.9  1.3375e+06  157665  82443.9
   12776.7  1.34438e+06  159295  83769.4
   12788.4  1.35049e+06  160841  85058
   12800.2  1.353e+06  162014  86163.8
   12812  1.35556e+06  163162  87256.6
   12824.2  1.36028e+06  164634  88527.4
   12836  1.36358e+06  165903  89670.4
   12848.2  1.36371e+06  166817  90676.4
   12860.5  1.36849e+06  168295  92017.5
   12872.4  1.36375e+06  168620  92682.7
   12885.1  1.36431e+06  169580  93750