File: data/As/ass_100K_scan2.xdi
# XDI/1.0
# Column.1: energy eV
# Column.2: i0
# Column.3: itrans
# Column.4: irefer
# Beamline.name: SSRL 2-3
# Beamline.notes: vert slits = 0.6mm
# Detector.I0: N2 15cm
# Detector.I1: Ar 30cm
# Detector.I2: Ar 15cm
# Element.edge: K
# Element.symbol: As
# Mono.d_spacing: 3.13550
# Mono.name: Si(111)
# Mono.notes: unfocused, detuned 75%, clockwise at E=12000eV
# Sample.formula: AsS
# Sample.name: AsS (realgar)
# Sample.prep: powder on tape (5 layers)
# Sample.reference: GaAs powder
# Sample.temperature: 100K
# Scan.start_time: 1997-04-20 00:46:37
# ///
#    Note: mono d_spacing is nominal!
#     exafs to K16, GaAs in IR
#     413  E XMU XMUR I0
#-------------
#   energy   i0   itrans  irefer
   11634.9  504067  72392.5  29517
   11654.9  499058  72276.5  29821
   11675.1  494389  72209.5  30155
   11695  488449  71947.5  30391
   11714.9  484108  71872.5  30721
   11735  479371  71757.5  31031
   11755.1  473894  71504.5  31269
   11775  469431  71378.5  31577
   11794.9  465216  71247.5  31865
   11814.9  459604  70800.5  32004
   11835  455664  70296.5  32093
   11845.4  452315  69319.5  31725
   11846.6  452796  69296.5  31711
   11847.5  451930  69060.5  31604
   11848.4  451601  68910.5  31532
   11849.6  450623  68592.5  31384
   11850.6  451283  68537.5  31343
   11851.5  450845  68287.5  31224
   11852.4  451125  68117.5  31131
   11853.6  451186  67781.5  30953
   11854.5  451279  67443.5  30770
   11855.4  450248  66914.5  30494
   11856.4  450381  66418.5  30218
   11857.6  449812  65451.5  29695
   11858.5  449680  64584.5  29216
   11859.4  449548  63404.5  28561
   11860.6  449723  61146.5  27314
   11861.6  448706  58650.5  25953
   11862.5  448688  54931.5  23942
   11863.4  448004  49575.5  21127
   11864.6  447904  38130.5  15442
   11865.5  447666  27589.5  10574
   11866.5  447946  18104.5  6454
   11867.4  447497  11024.5  3508
   11868.6  447328  8875.5  2432
   11869.5  446993  11122.5  2976
   11870.5  447137  15193.5  4095
   11871.4  446014  18984.5  5182
   11872.6  446073  22381.5  6230
   11873.5  446170  22900.5  6481
   11874.4  446170  22390.5  6460
   11875.4  445925  21710.5  6426
   11876.6  446090  21455.5  6570
   11877.5  445700  21650.5  6736
   11878.4  445890  22027.5  6932
   11879.4  445153  22306.5  7074
   11880.6  445071  22649.5  7235
   11881.5  444214  22819.5  7302
   11882.4  444078  23001.5  7358.01
   11883.7  443573  23204.5  7421
   11884.6  443266  23355.5  7471
   11885.5  442627  23464.5  7516
   11886.4  442923  23639.5  7584
   11887.6  443037  23880.5  7663
   11888.6  443251  24077.5  7725
   11889.5  442492  24243.5  7772
   11890.4  442879  24476.5  7838
   11891.6  442423  24741.5  7926
   11892.6  442478  24969.5  8012
   11893.5  441663  25130.5  8089.99
   11894.4  442186  25369.5  8215
   11895.6  441490  25587.3  8341.76
   11896.9  441632  25831.3  8450.83
   11898.4  441419  26065.4  8517
   11899.7  441730  26238.4  8552.23
   11901.2  441957  26371.6  8583.54
   11903  442645  26478.7  8621.92
   11904.6  443366  26508.9  8655.39
   11906.4  443809  26447.1  8654.93
   11908.3  444463  26328.4  8628.55
   11910.1  445640  26155.7  8570.25
   11912.3  446895  25851  8444.03
   11914.2  448015  25551.3  8338.89
   11916.3  449869  25214.7  8254.81
   11918.8  450217  24783.1  8190.82
   11921  452937  24622.5  8192.91
   11923.4  454063  24422  8157.08
   11925.9  456341  24400.5  8160.32
   11928.4  458420  24460  8186.64
   11930.9  461026  24629.6  8212.05
   11933.7  463602  24967.2  8272.52
   11936.4  465193  25385.8  8366.07
   11939.2  468160  25945.4  8543.71
   11942.3  469209  26519.1  8768.42
   11945.1  474465  27281.8  9051.2
   11948.2  477831  27919.5  9300.06
   11951.3  481016  28444.3  9505.01
   11954.8  484988  28892.1  9701.03
   11957.9  488154  29138  9827.12
   11961.3  491291  29280.8  9876.29
   11964.7  495501  29418.7  9914.54
   11968.5  499148  29453.7  9979.89
   11971.9  503028  29486.6  10109.3
   11975.6  507664  29540.6  10211.8
   11979.4  511856  29567.7  10262.3
   11983.1  515243  29567.7  10268
   11987.2  518337  29558.8  10229.7
   11991.3  525519  29827.9  10258.5
   11995.3  528589  29974.1  10232.4
   11999.4  534104  30382.2  10341.3
   12003.5  539240  30903.4  10554.4
   12007.9  543179  31513.7  10816.5
   12012.3  547793  32260  11129.6
   12016.7  555498  33203.2  11526.9
   12021.1  559936  33889.6  11829.2
   12025.8  566321  34571  12144.7
   12030.5  571786  35032.3  12376.2
   12035.3  576806  35371.8  12555.7
   12040  582227  35677.2  12718.4
   12045  587226  35865.7  12835.1
   12050.1  593686  36116.2  12974.9
   12055.2  597527  36226.8  13003.8
   12060.2  606771  36678.4  13147.8
   12065.3  612918  37003  13312.8
   12070.7  619795  37412.6  13487.9
   12076.1  625896  37849.3  13625.1
   12081.5  632376  38393  13789.4
   12086.9  639748  39052.8  14023.7
   12092.6  646288  39710.5  14323.2
   12098.3  652750  40380.3  14671.7
   12104.1  659227  41094.1  15032.2
   12109.8  665424  41790  15387.9
   12115.9  673439  42593.9  15805.6
   12121.6  680535  43293.8  16181.5
   12127.7  687007  43914.8  16507.4
   12133.8  693965  44511.7  16790.3
   12140.2  701747  45123.8  17031.4
   12146.3  708336  45599.8  17200.5
   12152.8  715633  46091.9  17392.7
   12159.2  722339  46526  17587
   12165.6  728723  46978.2  17808.4
   12172.4  737718  47636.3  18122.8
   12178.9  744965  48232.5  18427.3
   12185.7  753165  48975.7  18750.9
   12192.5  761167  49757  19136.6
   12199.6  768548  50565.3  19556.3
   12206.4  776058  51378.6  19959.1
   12213.5  784969  52297  20436.1
   12220.7  792693  53123.4  20899
   12227.8  799999  53892.8  21339.1
   12235  808153  54720.2  21759.2
   12242.5  814089  55359.7  22123.4
   12250  824352  56295.2  22543.7
   12257.5  832045  57035.8  22862.1
   12265.1  838217  57681.4  23179.6
   12272.6  848737  58605  23608.1
   12280.5  855747  59303.6  23971.7
   12288.4  865169  60160.3  24427.4
   12296.3  872318  60859  24837.1
   12304.2  881280  61699.7  25321
   12312.1  890045  62566.5  25793.9
   12320.4  897824  63415.3  26291.9
   12328.7  905842  64299.1  26799.9
   12336.6  913270  65178.9  27296.1
   12345.2  920771  66106.8  27845.3
   12353.5  931031  67249.7  28441.6
   12362.2  937518  68135.6  28940
   12370.5  945832  69135.7  29499.4
   12379.2  953692  70061.7  30023
   12387.9  961397  70977.7  30529.6
   12396.9  971199  72019.7  31092.3
   12405.6  979716  72949.8  31608
   12414.7  988248  73904  32143.9
   12423.8  994640  74699.2  32657.8
   12432.8  1.00301e+06  75663.3  33231.8
   12441.9  1.01094e+06  76626.5  33855.9
   12451.4  1.01761e+06  77501.8  34443
   12460.5  1.02489e+06  78457.2  35053.3
   12470  1.03412e+06  79576.5  35749.6
   12479.5  1.03982e+06  80461.8  36336
   12489  1.04816e+06  81544.1  36996.4
   12498.9  1.05638e+06  82651.6  37682
   12508.4  1.06287e+06  83625  38301.6
   12518.3  1.07121e+06  84747.5  39005.3
   12528.2  1.07761e+06  85755  39639.1
   12538.1  1.08386e+06  86722.6  40275
   12548.1  1.09189e+06  87824.1  40985.9
   12558.4  1.0985e+06  88828.7  41653.9
   12568.7  1.10693e+06  89943.4  42411
   12578.7  1.11295e+06  90869  43073.2
   12589.1  1.12092e+06  91980.7  43827.4
   12599.4  1.12811e+06  93024.4  44579.7
   12610.2  1.13503e+06  94074.1  45353.1
   12620.6  1.14341e+06  95289.9  46178.6
   12631.3  1.14974e+06  96382.7  46964.1
   12642.1  1.15657e+06  97530.6  47758.8
   12652.9  1.16189e+06  98560.5  48530.5
   12663.8  1.16816e+06  99632.3  49295.3
   12674.6  1.17505e+06  100794  50130.2
   12685.8  1.1816e+06  101965  50978.1
   12696.7  1.18925e+06  103169  51832.1
   12708  1.19464e+06  104216  52669.2
   12719.3  1.20169e+06  105373  53532.4
   12730.6  1.20554e+06  106285  54285.6
   12741.9  1.21063e+06  107285  55111
   12753.6  1.21753e+06  108456  56053.4
   12764.9  1.22403e+06  109628  56978.9
   12776.7  1.22856e+06  110637  57833.4
   12788.4  1.23549e+06  111907  58819.1
   12800.2  1.24237e+06  113186  59810.8
   12812  1.24818e+06  114370  60761.6
   12824.2  1.252e+06  115401  61653.5
   12836  1.25825e+06  116676  62654.4
   12848.2  1.26259e+06  117753  63586.5
   12860.5  1.26585e+06  118758  64494.5
   12872.4  1.27181e+06  119992  65505.7
   12885.1  1.27409e+06  120926  66410