File: data/As/ass_100K_scan1.xdi
# XDI/1.0
# Column.1: energy eV
# Column.2: i0
# Column.3: itrans
# Column.4: irefer
# Beamline.name: SSRL 2-3
# Beamline.notes: vert slits = 0.6mm
# Detector.I0: N2 15cm
# Detector.I1: Ar 30cm
# Detector.I2: Ar 15cm
# Element.edge: K
# Element.symbol: As
# Mono.d_spacing: 3.13550
# Mono.name: Si(111)
# Mono.notes: unfocused, detuned 75%, clockwise at E=12000eV
# Sample.formula: AsS
# Sample.name: AsS (realgar)
# Sample.prep: powder on tape (5 layers)
# Sample.reference: GaAs powder
# Sample.temperature: 100K
# Scan.start_time: 1997-04-20 00:46:37
# ///
#    Note: mono d_spacing is nominal!
#     exafs to K16, GaAs in IR
#     413  E XMU XMUR I0
#-------------
#   energy   i0   itrans  irefer
   11634.9  507191  72867.5  29701
   11654.9  501985  72710.5  29986
   11675.1  497537  72680.5  30336
   11695  491409  72383.5  30567
   11714.9  487580  72407.5  30922
   11735  482352  72210.5  31205
   11755.1  477091  72004.5  31472
   11775  472909  71918.5  31793
   11794.9  467916  71662.5  32039
   11814.9  462932  71320.5  32223
   11835  458338  70711.5  32253
   11845.4  455600  69846.5  31943
   11846.6  455984  69795.5  31925
   11847.5  454797  69514.5  31793
   11848.4  454407  69356.5  31722
   11849.6  453623  69054.5  31571
   11850.6  453853  68937.5  31502
   11851.5  453918  68759.5  31418
   11852.4  454219  68599.5  31331
   11853.6  453771  68171.5  31106
   11854.5  454241  67891.5  30949
   11855.4  453782  67430.5  30712
   11856.4  453979  66944.5  30443
   11857.6  453129  65927.5  29882
   11858.5  453328  65096.5  29421
   11859.4  452688  63818.5  28722
   11860.6  452575  61472.5  27430
   11861.6  451890  58947.5  26051
   11862.5  451553  55115.5  23989
   11863.4  450824  49503.5  21046
   11864.6  450790  37868.5  15291
   11865.5  450811  27096.5  10333
   11866.5  451056  17698.5  6275
   11867.4  450906  10883.5  3432
   11868.6  450651  9005.5  2450
   11869.5  449949  11490.5  3058
   11870.5  449639  15602.5  4195
   11871.4  448862  19388.5  5283
   11872.6  448766  22602.5  6282
   11873.5  448718  23026.5  6512
   11874.4  449046  22492.5  6488
   11875.4  448871  21817.5  6465
   11876.6  448861  21595.5  6608
   11877.5  448704  21832.5  6788.01
   11878.4  448686  22198.5  6975
   11879.4  448192  22492.5  7123
   11880.6  447980  22830.5  7278
   11881.5  447406  23002.5  7348
   11882.4  447137  23171.5  7404
   11883.7  446043  23350.5  7458
   11884.6  446177  23518.5  7513
   11885.5  445612  23632.5  7560
   11886.4  445788  23802.5  7629
   11887.6  446196  24056.5  7716
   11888.6  446358  24253.5  7773
   11889.5  446273  24463.5  7833
   11890.4  445868  24647.5  7893
   11891.6  445613  24931.5  7975
   11892.6  445290  25128.5  8049.99
   11893.5  444925  25322.5  8146
   11894.4  444831  25526.5  8259
   11895.6  444671  25773.2  8390.76
   11896.9  444401  26001.3  8493.83
   11898.4  444250  26238.3  8563
   11899.7  444350  26387.5  8589.23
   11901.2  444959  26554.6  8627.53
   11903  445625  26654.7  8671.93
   11904.6  445662  26645.9  8681.39
   11906.4  446665  26619.1  8702.94
   11908.3  447363  26499.4  8672.56
   11910.1  448623  26325.7  8617.26
   11912.3  449496  26000.9  8488.03
   11914.2  450865  25717.3  8383.89
   11916.3  452680  25368.7  8292.82
   11918.8  454062  24996.1  8251.83
   11921  455612  24770.5  8229.92
   11923.4  457716  24618  8210.08
   11925.9  459435  24557.5  8200.33
   11928.4  462082  24646  8230.64
   11930.9  463937  24776.6  8253.04
   11933.7  466899  25129.2  8314.52
   11936.4  469085  25579.8  8418.07
   11939.2  470783  26076.4  8575.7
   11942.3  472714  26700.1  8819.41
   11945.1  477034  27411.8  9087.21
   11948.2  481034  28096.6  9344.06
   11951.3  484651  28648.3  9558.01
   11954.8  487476  29019.1  9734.03
   11957.9  491188  29310  9868.13
   11961.3  494616  29470.8  9923.3
   11964.7  498667  29588.7  9962.55
   11968.5  502672  29644.7  10032.9
   11971.9  506615  29675.6  10159.3
   11975.6  510961  29716.6  10267.8
   11979.4  514801  29720.6  10299.3
   11983.1  518689  29752.7  10316
   11987.2  521680  29727.8  10273.7
   11991.3  528601  29988.9  10301.5
   11995.3  531861  30148  10277.4
   11999.4  538252  30602.2  10401.3
   12003.5  543031  31106.5  10612.4
   12007.9  547791  31777.7  10885.4
   12012.3  551647  32480.9  11187.6
   12016.7  558131  33347.3  11551.9
   12021.1  563741  34101.6  11885.3
   12025.8  570206  34794  12212.7
   12030.5  575720  35262.4  12443.2
   12035.3  580726  35593.8  12612.7
   12040  585841  35883.2  12774.4
   12045  592126  36153.7  12925.1
   12050.1  598220  36385.2  13062.9
   12055.2  601563  36448.8  13073.8
   12060.2  610177  36878.4  13206.8
   12065.3  618764  37332  13420.8
   12070.7  624232  37665.6  13564.9
   12076.1  630688  38131.3  13712.1
   12081.5  636676  38646  13870.4
   12086.9  644059  39297.8  14096.7
   12092.6  650745  39967.5  14402.2
   12098.3  656490  40605.3  14730.7
   12104.1  663342  41335.1  15107.3
   12109.8  669434  42016  15446.9
   12115.9  677607  42837.9  15873.6
   12121.6  685485  43585.8  16265.5
   12127.7  691532  44184.8  16590.4
   12133.8  698800  44812.8  16882.3
   12140.2  706641  45424.8  17124.4
   12146.3  714381  45973.8  17319.5
   12152.8  721757  46464.9  17515.7
   12159.2  728933  46938  17717
   12165.6  735033  47367.1  17939.3
   12172.4  743816  48014.3  18261.8
   12178.9  751778  48656.5  18573.3
   12185.7  760211  49409.7  18898.9
   12192.5  767723  50178  19275.6
   12199.6  774918  50976.3  19684.3
   12206.4  783092  51823.6  20109.1
   12213.5  791008  52675  20557.1
   12220.7  799184  53537.4  21044
   12227.8  807626  54382.8  21498.1
   12235  815439  55172.2  21913.2
   12242.5  823052  55945.7  22335.4
   12250  831466  56757.2  22704.7
   12257.5  840304  57598.8  23062.1
   12265.1  845678  58172.3  23353.5
   12272.6  856205  59103  23787.1
   12280.5  865385  59949.6  24212.7
   12288.4  873009  60686.3  24606.4
   12296.3  881145  61466.9  25063.1
   12304.2  888230  62185.7  25478.9
   12312.1  896393  63003.5  25950.9
   12320.4  905053  63898.3  26461.9
   12328.7  911900  64723.1  26946.9
   12336.6  921384  65737.9  27508.1
   12345.2  929779  66734.8  28083.3
   12353.5  937686  67709.7  28618.6
   12362.2  945836  68709.7  29168
   12370.5  953954  69684.7  29713.4
   12379.2  961892  70644.6  30258
   12387.9  968806  71496.7  30722.6
   12396.9  977769  72485.8  31266.3
   12405.6  985957  73399.8  31791
   12414.7  992848  74225  32270.9
   12423.8  1.00157e+06  75183.2  32851.8
   12432.8  1.00993e+06  76157.3  33445.8
   12441.9  1.01785e+06  77114.6  34052.9
   12451.4  1.02526e+06  78064.9  34677.1
   12460.5  1.03323e+06  79064.1  35328.3
   12470  1.04218e+06  80164.4  36008.6
   12479.5  1.04965e+06  81188.8  36659
   12489  1.05461e+06  82025.2  37202.5
   12498.9  1.06309e+06  83157.6  37892
   12508.4  1.07023e+06  84189  38540.6
   12518.3  1.0792e+06  85390.5  39279.3
   12528.2  1.08701e+06  86485  39967.1
   12538.1  1.09317e+06  87457.6  40597
   12548.1  1.10187e+06  88619.1  41350.9
   12558.4  1.10883e+06  89669.7  42025.9
   12568.7  1.11723e+06  90800.3  42785
   12578.7  1.12466e+06  91836  43517.1
   12589.1  1.13103e+06  92814.7  44202.4
   12599.4  1.13835e+06  93882.4  44958.7
   12610.2  1.14475e+06  94905.2  45714.1
   12620.6  1.15372e+06  96151.9  46570.6
   12631.3  1.15952e+06  97212.8  47346.2
   12642.1  1.16638e+06  98366.5  48145.8
   12652.9  1.17206e+06  99436.4  48908.5
   12663.8  1.178e+06  100491  49694.3
   12674.6  1.18285e+06  101503  50439.1
   12685.8  1.18929e+06  102633  51281.1
   12696.7  1.19717e+06  103866  52149.1
   12708  1.20674e+06  105264  53137.2
   12719.3  1.21182e+06  106265  53948.4
   12730.6  1.21583e+06  107191  54712.6
   12741.9  1.22231e+06  108315  55600
   12753.6  1.22879e+06  109514  56528.4
   12764.9  1.23435e+06  110569  57410.9
   12776.7  1.2397e+06  111682  58324.4
   12788.4  1.24505e+06  112812  59250.1
   12800.2  1.25191e+06  114060  60242.8
   12812  1.25747e+06  115231  61202.6
   12824.2  1.26096e+06  116247  62074.5
   12836  1.2677e+06  117555  63130.4
   12848.2  1.27046e+06  118507  63972.5
   12860.5  1.2743e+06  119555  64913.5
   12872.4  1.28099e+06  120860  65977.8
   12885.1  1.28414e+06  121883  66908