File: data/As/ass_100K_scan3.xdi
# XDI/1.0
# Column.1: energy eV
# Column.2: i0
# Column.3: itrans
# Column.4: irefer
# Beamline.name: SSRL 2-3
# Beamline.notes: vert slits = 0.6mm
# Detector.I0: N2 15cm
# Detector.I1: Ar 30cm
# Detector.I2: Ar 15cm
# Element.edge: K
# Element.symbol: As
# Mono.d_spacing: 3.13550
# Mono.name: Si(111)
# Mono.notes: unfocused, detuned 75%, clockwise at E=12000eV
# Sample.formula: AsS
# Sample.name: AsS (realgar)
# Sample.prep: powder on tape (5 layers)
# Sample.reference: GaAs powder
# Sample.temperature: 100K
# Scan.start_time: 1997-04-20 00:46:37
# ///
#    Note: mono d_spacing is nominal!
#     exafs to K16, GaAs in IR
#     413  E XMU XMUR I0
#-------------
#   energy   i0   itrans  irefer
   11634.9  499361  71714.5  29243
   11654.9  494904  71684.5  29588
   11675.1  489943  71563.5  29889
   11695  484297  71341.5  30140
   11714.9  480412  71342.5  30493
   11735  475508  71179.5  30783
   11755.1  470283  70969.5  31037
   11775  465979  70856.5  31342
   11794.9  461395  70651.5  31600
   11814.9  456898  70374.5  31808
   11835  451678  69680.5  31801
   11845.4  449560  68888.5  31532
   11846.6  449139  68733.5  31460
   11847.5  448942  68609.5  31404
   11848.4  448075  68359.5  31285
   11849.6  447453  68101.5  31157
   11850.6  447647  67979.5  31092
   11851.5  447744  67805.5  31001
   11852.4  447867  67620.5  30899
   11853.6  448203  67321.5  30740
   11854.5  447627  66868.5  30503
   11855.4  447020  66415.5  30262
   11856.4  446857  65868.5  29970
   11857.6  446750  64954.5  29469
   11858.5  446530  64076.5  28981
   11859.4  446673  62950.5  28349
   11860.6  446279  60590.5  27056
   11861.6  446366  58162.5  25722
   11862.5  445233  54298.5  23648
   11863.4  445149  48818.5  20771
   11864.6  444554  37480.5  15151
   11865.5  445133  26853.5  10252
   11866.5  444657  17629.5  6261
   11867.4  445200  10705.5  3377
   11868.6  444372  8890.5  2426
   11869.5  444651  11353.5  3034
   11870.5  443607  15381.5  4148
   11871.4  443476  19139.5  5226
   11872.6  442567  22313.5  6212
   11873.5  443187  22723.5  6435
   11874.4  442852  22165.5  6406
   11875.4  443155  21550.5  6397
   11876.6  442507  21293.5  6522
   11877.5  442695  21535.5  6706
   11878.4  441861  21862.5  6882
   11879.4  442238  22192.5  7037
   11880.6  441670  22500.5  7185
   11881.5  441522  22701.5  7261
   11882.4  441166  22865.5  7313
   11883.7  440199  23046.5  7366
   11884.6  440026  23194.5  7416.01
   11885.5  439873  23338.5  7469
   11886.4  439588  23479.5  7528
   11887.6  440348  23749.5  7621
   11888.6  439893  23908.5  7670
   11889.5  439866  24118.5  7734
   11890.4  439677  24319.5  7789.99
   11891.6  439322  24588.5  7875
   11892.6  438946  24791.5  7960
   11893.5  439262  25003.5  8051
   11894.4  438735  25185.5  8159
   11895.6  438834  25449.3  8299.76
   11896.9  438434  25652.3  8393.84
   11898.4  438360  25894.4  8458.99
   11899.7  438634  26060.4  8490.22
   11901.2  439001  26202.6  8525.54
   11903  439432  26288.7  8563.93
   11904.6  439791  26289.9  8578.39
   11906.4  440164  26231.1  8578.94
   11908.3  441437  26147.4  8570.55
   11910.1  442246  25948.6  8501.25
   11912.3  444203  25684  8392.03
   11914.2  445329  25378.3  8285.88
   11916.3  446755  25028.7  8196.82
   11918.8  447842  24644.1  8149.82
   11921  450115  24459.5  8140.92
   11923.4  451583  24281  8106.07
   11925.9  454059  24269.5  8120.32
   11928.4  456491  24356  8140.64
   11930.9  457982  24467.6  8155.04
   11933.7  461252  24837.1  8231.52
   11936.4  462941  25252.8  8321.07
   11939.2  465173  25782.4  8491.7
   11942.3  467008  26395.1  8730.41
   11945.1  471710  27126.8  8996.21
   11948.2  475478  27784.6  9252.06
   11951.3  478563  28298.3  9455
   11954.8  481493  28675.1  9622.02
   11957.9  485213  28960  9761.13
   11961.3  488431  29106.9  9807.3
   11964.7  492631  29238.7  9848.55
   11968.5  496593  29291.7  9921.88
   11971.9  499399  29270.6  10027.3
   11975.6  504353  29335.6  10145.8
   11979.4  508323  29360.7  10181.3
   11983.1  512062  29378.7  10198
   11987.2  515237  29369.8  10159.7
   11991.3  522478  29653.9  10191.5
   11995.3  525730  29802.1  10169.4
   11999.4  530936  30193.2  10270.3
   12003.5  535582  30690.4  10476.3
   12007.9  540135  31323.7  10745.5
   12012.3  544709  32067  11059.6
   12016.7  551011  32927.2  11424.9
   12021.1  557603  33733.6  11772.3
   12025.8  562956  34356  12067.7
   12030.5  568058  34803.3  12288.1
   12035.3  572497  35096.8  12452.7
   12040  578960  35466.2  12632.4
   12045  584762  35705.7  12779.1
   12050.1  590892  35942.2  12912.9
   12055.2  594172  36007.8  12923.8
   12060.2  602628  36423.4  13058.8
   12065.3  609075  36754  13224.8
   12070.7  615446  37146.6  13394.9
   12076.1  621973  37613.3  13537.1
   12081.5  628218  38142  13695.4
   12086.9  635358  38783.7  13919.7
   12092.6  642014  39436.5  14218.2
   12098.3  647481  40054.3  14554.7
   12104.1  654494  40783.1  14916.3
   12109.8  660599  41475  15269.9
   12115.9  668977  42303.9  15683.6
   12121.6  676122  43001.8  16057.5
   12127.7  682614  43630.8  16399.4
   12133.8  690045  44263.8  16683.3
   12140.2  697247  44823.8  16909.4
   12146.3  704358  45335.8  17091.5
   12152.8  711820  45832.9  17283.7
   12159.2  718582  46274  17480
   12165.6  724699  46691.1  17695.4
   12172.4  733580  47360.3  18013.8
   12178.9  741135  47976.5  18324.3
   12185.7  749225  48709.7  18652.9
   12192.5  756370  49442  19014.6
   12199.6  764348  50270.3  19431.3
   12206.4  772254  51120.7  19850.2
   12213.5  779678  51939  20280.1
   12220.7  788309  52810.4  20776
   12227.8  795670  53593.8  21208.1
   12235  803877  54397.2  21624.2
   12242.5  810310  55083.7  22001.4
   12250  819588  55953.2  22401.7
   12257.5  827651  56713.8  22732.1
   12265.1  835227  57448.4  23074.6
   12272.6  843733  58241.9  23469.1
   12280.5  852346  59040.6  23863.7
   12288.4  859514  59748.2  24261.3
   12296.3  868728  60586.9  24716.1
   12304.2  876199  61335.7  25162
   12312.1  885611  62243.5  25666.9
   12320.4  892666  63040.2  26127.9
   12328.7  901245  63966.1  26652.9
   12336.6  909892  64924.9  27195.1
   12345.2  917776  65890.8  27751.3
   12353.5  926249  66888.7  28290.6
   12362.2  934354  67874.7  28835
   12370.5  941604  68798.7  29363.5
   12379.2  948786  69692.7  29875
   12387.9  957326  70650.7  30389.6
   12396.9  965363  71569.8  30902.3
   12405.6  974293  72523.8  31434
   12414.7  981412  73349  31925.9
   12423.8  989129  74255.1  32480.8
   12432.8  1.00033e+06  75413.3  33153.8
   12441.9  1.00743e+06  76306.6  33729.9
   12451.4  1.01525e+06  77292.9  34364.1
   12460.5  1.02327e+06  78300.1  34993.3
   12470  1.03246e+06  79435.5  35693.6
   12479.5  1.0398e+06  80432.8  36339
   12489  1.0455e+06  81304.1  36895.4
   12498.9  1.05417e+06  82444.6  37588
   12508.4  1.06259e+06  83566  38264.6
   12518.3  1.07007e+06  84646.5  38950.3
   12528.2  1.07536e+06  85530  39551.1
   12538.1  1.08318e+06  86641.5  40258
   12548.1  1.09084e+06  87719.1  40940.9
   12558.4  1.09885e+06  88828.7  41665.9
   12568.7  1.10583e+06  89831.3  42366
   12578.7  1.11367e+06  90914  43078.2
   12589.1  1.11957e+06  91835.6  43755.4
   12599.4  1.12607e+06  92826.4  44474.7
   12610.2  1.13129e+06  93748.1  45175.1
   12620.6  1.13835e+06  94849.9  45972.6
   12631.3  1.14653e+06  96078.8  46842.1
   12642.1  1.15284e+06  97184.6  47608.8
   12652.9  1.157e+06  98136.4  48317.5
   12663.8  1.16348e+06  99229.3  49103.3
   12674.6  1.17244e+06  100564  50019.1
   12685.8  1.17883e+06  101696  50867.1
   12696.7  1.18529e+06  102809  51678.1
   12708  1.1924e+06  103986  52537.2
   12719.3  1.19738e+06  105010  53353.4
   12730.6  1.20481e+06  106198  54238.6
   12741.9  1.20978e+06  107182  55055
   12753.6  1.2161e+06  108351  55976.4
   12764.9  1.22054e+06  109314  56794.9
   12776.7  1.22651e+06  110475  57703.4
   12788.4  1.23157e+06  111552  58611.1
   12800.2  1.23724e+06  112704  59566.8
   12812  1.24282e+06  113879  60507.6
   12824.2  1.24808e+06  115024  61455.5
   12836  1.25333e+06  116195  62423.4
   12848.2  1.25936e+06  117451  63431.4
   12860.5  1.26318e+06  118489  64358.6
   12872.4  1.26923e+06  119743  65387.7
   12885.1  1.2726e+06  120760  66338