File: data/As/ass_10K_scan2.xdi
# XDI/1.0
# Column.1: energy eV
# Column.2: i0
# Column.3: itrans
# Column.4: irefer
# Beamline.name: SSRL 2-3
# Beamline.notes: vert slits = 0.6mm
# Detector.I0: N2 15cm
# Detector.I1: Ar 30cm
# Detector.I2: Ar 15cm
# Element.edge: K
# Element.symbol: As
# Mono.d_spacing: 3.13550
# Mono.name: Si(111)
# Mono.notes: unfocused, detuned 75%, clockwise at E=12000eV
# Sample.formula: AsS
# Sample.name: AsS (realgar)
# Sample.prep: powder on tape (5 layers)
# Sample.reference: GaAs powder
# Sample.temperature: 10K
# Scan.start_time: 1997-04-19 17:37:58
# ///
#    Note: mono d_spacing is nominal!
#     exafs to K16, GaAs in IR
#     413  E XMU XMUR I0
#-------------
#   energy   i0   itrans  irefer
   11634.9  548697  72457.5  29774
   11654.9  543127  72368.5  30092
   11675.1  538334  72375.5  30446
   11695  532489  72211.5  30731
   11714.9  526446  72013.5  31013
   11735  522769  72109.5  31412
   11755.1  516863  71902.5  31677
   11775  511480  71726.5  31956
   11794.9  506762  71577.5  32242
   11814.9  501301  71274.5  32458
   11835  496305  70729.5  32523
   11845.4  493366  69961.5  32269
   11846.6  492707  69778.5  32185
   11847.5  492969  69762.5  32181
   11848.4  491683  69489.5  32062
   11849.6  491664  69345.5  31988
   11850.6  490756  69096.5  31871
   11851.5  490549  68918.5  31783
   11852.4  490256  68732.5  31686
   11853.6  491035  68563.5  31591
   11854.5  491110  68307.5  31457
   11855.4  490583  67981.5  31283
   11856.4  490594  67608.5  31084
   11857.6  490200  66944.5  30730
   11858.5  490183  66376.5  30406
   11859.4  490041  65622.5  29994
   11860.6  488887  64133.5  29176
   11861.6  489536  62868.5  28473
   11862.5  488429  60739.5  27300
   11863.4  488029  58043.5  25817
   11864.6  487603  51769.5  22455
   11865.5  487007  44869.5  18906
   11866.5  486895  35986.5  14574
   11867.4  486754  25553.5  9781
   11868.6  487248  13636.5  4649
   11869.5  487129  9216.5  2773
   11870.5  487186  8940.5  2439
   11871.4  486171  11538.5  3096
   11872.6  485698  17105.5  4660
   11873.5  484349  20556.5  5688
   11874.4  484901  22332.5  6265
   11875.4  484399  22542.5  6438
   11876.6  485549  21691.5  6396
   11877.5  484668  21209.5  6411
   11878.4  485199  21195.5  6554
   11879.4  484933  21447.5  6728
   11880.6  484710  21938.5  6980
   11881.5  483818  22186.5  7103
   11882.4  484528  22448.5  7221
   11883.7  483039  22655.5  7297.01
   11884.6  483077  22863.5  7361
   11885.5  482290  22990.5  7397
   11886.4  481616  23114.5  7443
   11887.6  481658  23318.5  7522
   11888.6  482568  23526.5  7596
   11889.5  482002  23684.5  7647
   11890.4  482019  23879.5  7703
   11891.6  481498  24147.5  7780
   11892.6  481561  24382.5  7858
   11893.5  481430  24590.5  7933
   11894.4  481499  24825.5  8029.01
   11895.6  480897  25079.3  8161.76
   11896.9  480241  25317.3  8294.84
   11898.4  480609  25637.4  8443
   11899.7  480217  25810.4  8483.23
   11901.2  481021  26045.6  8539.53
   11903  481014  26169.7  8575.93
   11904.6  482249  26274.9  8616.39
   11906.4  482732  26261.1  8633.93
   11908.3  483661  26212.4  8636.56
   11910.1  485286  26097.7  8612.26
   11912.3  486501  25827.9  8510.03
   11914.2  487775  25555.3  8400.89
   11916.3  488313  25155.7  8262.82
   11918.8  490157  24765.1  8190.83
   11921  492462  24522.5  8179.91
   11923.4  494795  24323  8160.08
   11925.9  495844  24157.5  8124.33
   11928.4  499067  24228  8149.64
   11930.9  501514  24321.5  8170.04
   11933.7  503853  24541.1  8199.52
   11936.4  507616  25010.8  8309.08
   11939.2  509291  25457.4  8431.71
   11942.3  511086  26061.1  8651.41
   11945.1  514720  26720.8  8903.2
   11948.2  520280  27496.6  9195.07
   11951.3  523817  28074.3  9418.01
   11954.8  527133  28520.1  9610.02
   11957.9  530406  28806  9760.12
   11961.3  534114  29013.8  9843.3
   11964.7  538153  29144.7  9876.55
   11968.5  541788  29177.7  9910.88
   11971.9  546921  29273.6  10051.3
   11975.6  552456  29344.6  10186.8
   11979.4  556381  29337.7  10230.3
   11983.1  560566  29350.7  10256
   11987.2  562979  29282.8  10213.7
   11991.3  570928  29540.9  10244.5
   11995.3  575174  29683.1  10218.4
   11999.4  580006  29980.2  10266.3
   12003.5  584383  30390.4  10429.4
   12007.9  590964  31091.7  10720.4
   12012.3  593422  31678.9  10982.6
   12016.7  602719  32679.3  11394.9
   12021.1  608170  33436.6  11730.2
   12025.8  614599  34148  12057.7
   12030.5  619872  34608.3  12289.2
   12035.3  625948  35013.8  12486.7
   12040  632688  35370.2  12674.4
   12045  638658  35594.7  12810.1
   12050.1  645141  35820.2  12947.9
   12055.2  649056  35893.8  12972.8
   12060.2  657231  36237.4  13073.8
   12065.3  666088  36660  13256.8
   12070.7  672299  36984.6  13413.9
   12076.1  679496  37452.3  13570.1
   12081.5  686650  37986  13734.4
   12086.9  692714  38520.8  13915.7
   12092.6  699005  39120.5  14177.2
   12098.3  706425  39819.3  14533.7
   12104.1  712828  40480.1  14878.3
   12109.8  719952  41191  15227.9
   12115.9  727795  41952.9  15636.7
   12121.6  735002  42639.8  16001.5
   12127.7  742693  43312.8  16367.4
   12133.8  750990  43983.8  16679.3
   12140.2  758373  44539.8  16905.4
   12146.3  765282  45012.8  17069.5
   12152.8  775145  45616.9  17309.7
   12159.2  783603  46114  17521
   12165.6  790564  46549.1  17733.4
   12172.4  798856  47123.3  18015.8
   12178.9  807503  47755.5  18333.3
   12185.7  815318  48415.7  18637.9
   12192.5  823049  49146  18990.6
   12199.6  831542  49985.3  19409.3
   12206.4  840156  50824.6  19833.1
   12213.5  848713  51689  20294.1
   12220.7  857142  52518.4  20758
   12227.8  865501  53323.8  21218.1
   12235  874490  54137.2  21645.2
   12242.5  883299  54937.7  22070.4
   12250  890704  55647.3  22417.7
   12257.5  898969  56390.8  22734.1
   12265.1  909010  57243.3  23138.5
   12272.6  914672  57817  23439.1
   12280.5  924396  58650.6  23864.7
   12288.4  931978  59341.3  24233.4
   12296.3  941183  60137  24687.1
   12304.2  950569  60968.7  25143
   12312.1  958856  61744.5  25611.9
   12320.4  966792  62554.2  26077.9
   12328.7  976143  63488.1  26607.9
   12336.6  985379  64446.9  27158.1
   12345.2  993277  65353.8  27691.3
   12353.5  1.0015e+06  66294.7  28202.6
   12362.2  1.01009e+06  67286.7  28755
   12370.5  1.01836e+06  68240.6  29288.4
   12379.2  1.02674e+06  69179.7  29818
   12387.9  1.0356e+06  70120.7  30346.6
   12396.9  1.04335e+06  70967.8  30813.3
   12405.6  1.05278e+06  71908.9  31351
   12414.7  1.05996e+06  72717  31833.9
   12423.8  1.06869e+06  73624.1  32382.8
   12432.8  1.08028e+06  74755.3  33046.8
   12441.9  1.08708e+06  75588.6  33599.9
   12451.4  1.0948e+06  76533.8  34205
   12460.5  1.10301e+06  77490.1  34827.3
   12470  1.1113e+06  78505.4  35467.6
   12479.5  1.11989e+06  79552.8  36146
   12489  1.12691e+06  80499.2  36733.5
   12498.9  1.13685e+06  81693.6  37451
   12508.4  1.14457e+06  82727  38101.6
   12518.3  1.15086e+06  83662.5  38711.3
   12528.2  1.15654e+06  84558  39308.1
   12538.1  1.16526e+06  85673.5  40015.9
   12548.1  1.17449e+06  86808.1  40749.9
   12558.4  1.18189e+06  87829.7  41431.9
   12568.7  1.1896e+06  88849.4  42137
   12578.7  1.19784e+06  89914  42861.2
   12589.1  1.20429e+06  90854.7  43535.4
   12599.4  1.21236e+06  91944.4  44301.7
   12610.2  1.2169e+06  92783.1  44972.1
   12620.6  1.22605e+06  93994  45806.6
   12631.3  1.23488e+06  95250.8  46681.1
   12642.1  1.23825e+06  96089.6  47337.8
   12652.9  1.24408e+06  97146.5  48101.5
   12663.8  1.25043e+06  98197.4  48870.3
   12674.6  1.25594e+06  99230.3  49630.1
   12685.8  1.26377e+06  100456  50508.1
   12696.7  1.26747e+06  101338  51214.1
   12708  1.2716e+06  102226  51934.2
   12719.3  1.27125e+06  102783  52516.4
   12730.6  1.2723e+06  103441  53148.6
   12741.9  1.27754e+06  104440  53968
   12753.6  1.28404e+06  105589  54859.4
   12764.9  1.28803e+06  106491  55649.8
   12776.7  1.29357e+06  107565  56512.4
   12788.4  1.29765e+06  108536  57363.1
   12800.2  1.30479e+06  109772  58320.8
   12812  1.31162e+06  110992  59290.6
   12824.2  1.31796e+06  112222  60291.5
   12836  1.32141e+06  113183  61139.4
   12848.2  1.32694e+06  114350  62104.5
   12860.5  1.33287e+06  115561  63117.5
   12872.4  1.33399e+06  116346  63882.8
   12885.1  1.34368e+06  117896  65109