File: data/As/ass_10K_scan1.xdi
# XDI/1.0
# Column.1: energy eV
# Column.2: i0
# Column.3: itrans
# Column.4: irefer
# Beamline.name: SSRL 2-3
# Beamline.notes: vert slits = 0.6mm
# Detector.I0: N2 15cm
# Detector.I1: Ar 30cm
# Detector.I2: Ar 15cm
# Element.edge: K
# Element.symbol: As
# Mono.d_spacing: 3.13550
# Mono.name: Si(111)
# Mono.notes: unfocused, detuned 75%, clockwise at E=12000eV
# Sample.formula: AsS
# Sample.name: AsS (realgar)
# Sample.prep: powder on tape (5 layers)
# Sample.reference: GaAs powder
# Sample.temperature: 10K
# Scan.start_time: 1997-04-19 17:37:58
# ///
#    Note: mono d_spacing is nominal!
#     exafs to K16, GaAs in IR
#     413  E XMU XMUR I0
#-------------
#   energy   i0   itrans  irefer
   11634.9  555708  73435.5  30191
   11654.9  549917  73307.5  30496
   11675.1  545058  73297.5  30860
   11695  537898  72973.5  31076
   11714.9  532881  72907.5  31406
   11735  528032  72875.5  31753
   11755.1  522261  72689.5  32042
   11775  516675  72475.5  32311
   11794.9  511681  72323.5  32608
   11814.9  505708  71926.5  32780
   11835  500292  71321.5  32809
   11845.4  497938  70634.5  32598
   11846.6  496545  70344.5  32465
   11847.5  497408  70403.5  32501
   11848.4  496886  70244.5  32414
   11849.6  496077  69986.5  32304
   11850.6  495544  69795.5  32210
   11851.5  494989  69567.5  32095
   11852.4  495356  69451.5  32033
   11853.6  494736  69092.5  31856
   11854.5  495657  68949.5  31768
   11855.4  494717  68531.5  31562
   11856.4  494844  68193.5  31369
   11857.6  494473  67501.5  30992
   11858.5  494685  66978.5  30710
   11859.4  494081  66123.5  30227
   11860.6  493906  64653.5  29414
   11861.6  493078  63192.5  28620
   11862.5  493340  61124.5  27472
   11863.4  492541  58384.5  25975
   11864.6  491735  51804.5  22449
   11865.5  491127  44996.5  18952
   11866.5  491570  35523.5  14336
   11867.4  491689  25080.5  9560
   11868.6  491709  13222.5  4473
   11869.5  491541  9079.5  2695
   11870.5  491064  9152.5  2496
   11871.4  491214  12048.5  3246
   11872.6  489634  17894.5  4898
   11873.5  489478  21107.5  5859
   11874.4  489448  22655.5  6378
   11875.4  489799  22761.5  6523
   11876.6  489054  21811.5  6459
   11877.5  489898  21417.5  6502.99
   11878.4  489155  21398.5  6631
   11879.4  489320  21668.5  6814.99
   11880.6  488581  22141.5  7057
   11881.5  488631  22430.5  7197
   11882.4  488314  22643.5  7289.01
   11883.7  488091  22921.5  7391
   11884.6  487299  23078.5  7438
   11885.5  486758  23217.5  7480
   11886.4  486348  23351.5  7533
   11887.6  486233  23560.5  7613
   11888.6  486238  23715.5  7671
   11889.5  486377  23916.5  7733
   11890.4  486197  24104.5  7790
   11891.6  485909  24383.5  7870
   11892.6  485789  24618.5  7944
   11893.5  485427  24813.5  8012
   11894.4  485490  25043.5  8106
   11895.6  484439  25281.3  8244.77
   11896.9  485367  25609.3  8406.83
   11898.4  484435  25852.4  8520.99
   11899.7  485032  26082.4  8590.22
   11901.2  485298  26284.6  8628.53
   11903  486061  26458.7  8676.92
   11904.6  486655  26521.9  8708.39
   11906.4  486955  26502.1  8717.94
   11908.3  488320  26461.4  8728.55
   11910.1  488975  26306.6  8688.25
   11912.3  490405  26044.9  8587.03
   11914.2  491856  25779.3  8482.89
   11916.3  493729  25438.7  8368.82
   11918.8  494913  25007.1  8279.83
   11921  497157  24758.5  8268.92
   11923.4  499381  24547  8239.08
   11925.9  500874  24418.5  8217.33
   11928.4  503700  24454  8234.65
   11930.9  506010  24550.6  8256.04
   11933.7  508922  24801.1  8299.52
   11936.4  511500  25201.8  8378.07
   11939.2  514289  25720.4  8523.71
   11942.3  515781  26318.1  8749.42
   11945.1  519348  26968.8  8993.2
   11948.2  524871  27757.6  9291.07
   11951.3  528345  28332.3  9522.01
   11954.8  532369  28820.1  9721.03
   11957.9  534466  29053  9852.12
   11961.3  539786  29335.8  9960.3
   11964.7  543900  29462.7  9994.55
   11968.5  547397  29485.7  10036.9
   11971.9  552293  29568.6  10163.3
   11975.6  556593  29577.6  10278.8
   11979.4  561329  29610.6  10336.3
   11983.1  566056  29654.7  10371
   11987.2  567610  29536.8  10311.7
   11991.3  575861  29799.9  10345.5
   11995.3  580414  29961.1  10321.4
   11999.4  585352  30272.2  10382.3
   12003.5  589564  30674.4  10525.4
   12007.9  596040  31366.7  10819.5
   12012.3  598569  31955.9  11085.6
   12016.7  607608  32960.3  11498.9
   12021.1  614021  33772.6  11843.2
   12025.8  618827  34404  12146.7
   12030.5  624817  34902.4  12396.2
   12035.3  630778  35300.8  12598.7
   12040  636525  35605.2  12766.4
   12045  643204  35881.7  12915.1
   12050.1  648752  36034.2  13025.9
   12055.2  653682  36170.8  13082.8
   12060.2  662050  36521.4  13175.8
   12065.3  670143  36908  13353.8
   12070.7  676634  37249.6  13527.9
   12076.1  683778  37707.3  13667.1
   12081.5  691272  38262  13841.4
   12086.9  696561  38762.7  14007.7
   12092.6  703801  39407.5  14282.2
   12098.3  710633  40077.3  14636.7
   12104.1  718023  40798.2  15001.3
   12109.8  724745  41495  15344.9
   12115.9  732968  42285.9  15758.6
   12121.6  741006  43024.8  16150.5
   12127.7  747219  43608.8  16479.4
   12133.8  755130  44253.8  16780.3
   12140.2  763211  44853.8  17028.4
   12146.3  771235  45383.8  17220.5
   12152.8  780650  45961.9  17452.7
   12159.2  788552  46435  17652
   12165.6  795876  46903.1  17880.4
   12172.4  805010  47512.3  18178.8
   12178.9  812637  48095.5  18489.3
   12185.7  819459  48688.8  18754.9
   12192.5  828493  49510  19155.6
   12199.6  836788  50331.3  19561.3
   12206.4  845766  51204.6  20003.1
   12213.5  854179  52062  20448
   12220.7  862423  52882.4  20914
   12227.8  871176  53704.8  21382.1
   12235  880397  54530.3  21816.2
   12242.5  887864  55263.7  22212.4
   12250  893514  55860.2  22507.7
   12257.5  906189  56882.8  22937.1
   12265.1  913477  57568.4  23272.6
   12272.6  921596  58295.9  23642.1
   12280.5  930391  59066.6  24030.7
   12288.4  937986  59750.3  24410.4
   12296.3  947269  60559  24869.1
   12304.2  956102  61345.7  25324.9
   12312.1  964989  62179.4  25793.9
   12320.4  972223  62924.3  26250.9
   12328.7  981822  63899  26803.9
   12336.6  990101  64782.9  27310.1
   12345.2  999117  65771.8  27886.3
   12353.5  1.00697e+06  66692.7  28387.6
   12362.2  1.01694e+06  67776.7  28973
   12370.5  1.02477e+06  68710.6  29504.4
   12379.2  1.03287e+06  69614.6  30027
   12387.9  1.04208e+06  70580.7  30551.6
   12396.9  1.04814e+06  71336.8  30981.3
   12405.6  1.05884e+06  72369.8  31568
   12414.7  1.06643e+06  73184  32051.9
   12423.8  1.07427e+06  74049.1  32583.8
   12432.8  1.08381e+06  75019.3  33183.8
   12441.9  1.09353e+06  76064.6  33829.9
   12451.4  1.09906e+06  76853.8  34373
   12460.5  1.10874e+06  77927.1  35055.3
   12470  1.11697e+06  78946.4  35695.6
   12479.5  1.12401e+06  79878.8  36319
   12489  1.133e+06  80966.2  36980.4
   12498.9  1.14288e+06  82160.6  37706
   12508.4  1.15129e+06  83234  38374.6
   12518.3  1.15829e+06  84244.5  39025.3
   12528.2  1.16334e+06  85096  39598.1
   12538.1  1.17159e+06  86178.5  40285.9
   12548.1  1.17984e+06  87248.1  40997.9
   12558.4  1.18871e+06  88386.7  41743.9
   12568.7  1.19719e+06  89477.4  42481
   12578.7  1.20455e+06  90452  43173.1
   12589.1  1.21073e+06  91397.7  43840.4
   12599.4  1.2173e+06  92354.4  44552.7
   12610.2  1.22513e+06  93455.2  45354.1
   12620.6  1.2334e+06  94618  46167.6
   12631.3  1.23974e+06  95649.8  46934.2
   12642.1  1.24797e+06  96881.6  47778.8
   12652.9  1.25498e+06  98033.4  48591.5
   12663.8  1.25885e+06  98884.4  49265.3
   12674.6  1.2603e+06  99623.3  49871.1
   12685.8  1.26433e+06  100530  50579.1
   12696.7  1.2649e+06  101149  51172.1
   12708  1.26858e+06  102015  51887.2
   12719.3  1.27195e+06  102869  52611.4
   12730.6  1.27629e+06  103783  53386.6
   12741.9  1.28466e+06  105041  54300.9
   12753.6  1.28676e+06  105827  55038.4
   12764.9  1.29429e+06  107032  55962.8
   12776.7  1.29825e+06  107970  56777.4
   12788.4  1.30308e+06  109017  57656.1
   12800.2  1.30724e+06  109998  58499.8
   12812  1.31266e+06  111105  59395.6
   12824.2  1.31704e+06  112151  60301.5
   12836  1.32323e+06  113356  61277.4
   12848.2  1.33002e+06  114619  62299.5
   12860.5  1.33969e+06  116176  63492.6
   12872.4  1.33994e+06  116870  64214.7
   12885.1  1.34963e+06  118431  65460