File: data/As/gaas_roomt_01.xdi
# XDI/1.0
# Column.1: energy eV
# Column.2: i0
# Column.3: itrans
# Column.4: irefer
# Beamline.name: SSRL 4-1
# Detector.I0: N2 15cm
# Detector.I1: N2 30cm
# Detector.I2: Ar 15cm
# Element.edge: K
# Element.symbol: As
# Mono.d_spacing: 3.13550
# Mono.name: Si(111)
# Mono.notes: unfocused, detuned 40%,counter clockwise at E=12000eV
# Sample.formula: GaAs
# Sample.name: GaAs gallium arsenide
# Sample.prep: powder
# Sample.reference: none
# Sample.temperature: room temperature
# Scan.start_time: 1997-01-19 14:12:16
# ///
#    Note: mono d_spacing is nominal!
#     exafs to K15
#     same as calibration scan used in as001c_1.xmu,
#     similar scans can be found in many other scans
#     320  E XMUR XMU I0
#-------------
#   energy   i0   itrans  irefer
   11650  179062  207601  325987
   11670  178040  207532  327517
   11690  176917  207352  328855
   11710  175015  206215  328694
   11730  174715  206957  331531
   11750  174308  207548  334136
   11770  173368  207548  335699
   11790  172098  207062  336516
   11810  171212  207024  337854
   11830  169899  206281  337682
   11850  168960  205196  334878
   11851.5  167889  203765  332086
   11853  169457  205459  334396
   11854.5  168709  204292  331752
   11856.1  167594  202554  327968
   11857.6  167596  202052  325972
   11859.1  168226  201950  323924
   11860.6  167509  199768  317823
   11862.1  167890  197913  311022
   11863.6  167567  192268  295331
   11865.2  167960  181316  267023
   11866.7  167393  161937  216631
   11868.2  167879  142070  156329
   11869.7  168294  126354  108526
   11871.2  167908  123414  89094.9
   11872.7  167263  124881  94140.9
   11874.2  167382  128101  112717
   11875.8  166906  131879  128925
   11877.3  167107  135809  140853
   11878.8  166608  138871  146185
   11880.3  166590  140932  145179
   11881.8  166363  141947  142985
   11883.3  166587  142596  143780
   11884.8  166934  142824  146620
   11886.4  165962  142062  148497
   11887.9  166466  142642  151543
   11889.4  166536  142657  154092
   11890.9  166634  142563  156951
   11892.4  166471  142379  159259
   11893.9  166748  143028  162221
   11895.5  166283  143449  164014
   11897  165623  143657  164638
   11898.5  166049  144334  165699
   11900  165944  144007  165755
   11902.6  166518  144026  166827
   11905.2  166510  144188  168146
   11908  166698  144697  169210
   11910.8  165792  143889  167294
   11913.6  166308  143914  165296
   11916.6  166188  143707  163551
   11919.6  166581  145196  164364
   11922.7  166152  145985  164001
   11925.9  167263  147383  163841
   11929.2  167541  147624  162879
   11932.5  168167  147563  162138
   11936  169828  147904  162207
   11939.4  170929  148028  162234
   11943  171611  148834  162708
   11946.7  171936  149618  163679
   11950.4  172056  150201  165392
   11954.2  173243  151680  168234
   11958.1  174509  153485  171110
   11962  175792  154839  173532
   11966  176348  155076  174559
   11970.2  177847  156916  177355
   11974.3  179294  159930  181420
   11978.6  180660  162436  184989
   11982.9  183025  164833  188725
   11987.3  183605  165084  189844
   11991.8  184918  165202  190438
   11996.4  186054  164771  190173
   12001  187631  165150  190401
   12005.8  190032  167484  192554
   12010.6  192091  169986  194772
   12015.4  194472  172932  197695
   12020.4  196205  175350  200141
   12025.4  197524  177510  202452
   12030.5  199113  179817  205071
   12035.7  202512  183597  209537
   12040.9  204408  186006  212810
   12046.3  206721  188664  216615
   12051.7  209380  191646  220905
   12057.2  210832  192631  222872
   12062.7  213584  194691  225824
   12068.4  216364  197654  229646
   12074.1  218493  199559  232219
   12079.9  220552  200654  234093
   12085.7  223846  203039  237550
   12091.7  226458  205400  240899
   12097.7  228666  208491  244969
   12103.8  231451  212295  249999
   12110  234259  215886  254952
   12116.2  236446  219188  259624
   12122.6  239990  223844  265694
   12129  242479  227339  270210
   12135.4  245148  230289  273934
   12142  247777  232453  276453
   12148.6  251610  235619  280042
   12155.4  255519  239063  284114
   12162.1  256838  240367  286101
   12169  262168  245779  293367
   12175.9  264359  248486  297713
   12183  266539  250918  301880
   12190  272348  256763  310041
   12197.2  275376  260522  315486
   12204.5  277885  263676  319959
   12211.8  282984  269507  327534
   12219.2  284971  272787  331908
   12226.7  288764  277794  338494
   12234.2  292358  282245  344611
   12241.9  296853  287406  351911
   12249.6  299138  289899  356201
   12257.3  303001  293398  361746
   12265.2  306697  297068  367541
   12273.1  311364  302046  374629
   12281.1  315691  306639  381093
   12289.2  317593  309302  384902
   12297.4  323041  315700  393276
   12305.6  326094  319752  398763
   12314  330149  324766  405673
   12322.4  333044  328758  411534
   12330.8  338324  335136  420712
   12339.4  342828  340860  429303
   12348  346067  345058  436132
   12356.7  350692  351076  444808
   12365.5  354249  354637  451094
   12374.3  358283  359777  458738
   12383.3  363921  366098  467765
   12392.3  365219  368030  471134
   12401.4  369750  373302  478897
   12410.5  373037  377466  485391
   12419.8  380071  385576  497254
   12429.1  384159  390944  505754
   12438.5  389422  397618  516042
   12447.9  391246  400975  522032
   12457.5  396919  408174  532867
   12467.1  401675  414392  542317
   12476.8  405355  419578  550224
   12486.6  409501  424986  558404
   12496.4  415296  432022  568868
   12506.4  420044  438027  578044
   12516.4  421059  440208  582474
   12526.4  427538  448169  594813
   12536.6  431218  453175  603374
   12546.8  435268  458637  612588
   12557.1  441638  466646  625250
   12567.5  444134  470656  632425
   12578  449688  477972  643997
   12588.5  453786  483931  653638
   12599.2  460001  492209  666513
   12609.9  462971  497064  674958
   12620.6  468083  504218  686512
   12631.5  471629  509595  695918
   12642.4  475320  515089  705547
   12653.4  482764  524640  720857
   12664.5  484768  528228  727998
   12675.6  489931  535340  739869
   12686.8  494418  541808  750807
   12698.1  497573  546898  759847
   12709.5  502543  554045  771750
   12715.2  505292  557902  778155